timestamps,Fz,C3,Cz,C4,Pz,PO7,Oz,PO8,stim
1713488367.9564672,155843.875,144477.390625,231769.0,216137.359375,146548.59375,160031.25,132404.859375,142345.84375,0.0
1713488367.9614377,155851.390625,144489.109375,231772.671875,216130.734375,146556.28125,160039.578125,132410.9375,142340.203125,0.0
1713488367.9639258,155835.125,144490.625,231762.203125,216126.890625,146557.265625,160037.78125,132412.984375,142337.34375,0.0
1713488367.9663725,155840.75,144482.84375,231754.15625,216126.265625,146553.6875,160031.4375,132410.75,142341.90625,0.0
1713488367.9689305,155859.890625,144481.765625,231760.875,216136.546875,146560.03125,160036.171875,132415.234375,142348.96875,0.0
1713488367.971368,155854.78125,144490.890625,231764.359375,216127.15625,146567.546875,160043.59375,132419.875,142344.59375,0.0
1713488367.9739275,155837.359375,144497.859375,231755.328125,216117.859375,146566.203125,160040.015625,132416.03125,142339.578125,0.0
1713488367.9763772,155850.578125,144499.828125,231754.703125,216129.21875,146568.4375,160039.578125,132419.421875,142350.125,0.0
1713488367.9789252,155885.90625,144507.25,231768.828125,216149.515625,146576.75,160047.703125,132425.859375,142359.875,0.0
1713488367.981415,155883.046875,144503.234375,231760.875,216131.8125,146568.796875,160041.890625,132412.09375,142340.296875,0.0
1713488367.9839306,155851.84375,144492.140625,231735.5625,216107.046875,146553.953125,160027.5,132396.90625,142323.21875,0.0
1713488367.9864252,155862.203125,144492.328125,231732.34375,216119.03125,146553.953125,160024.640625,132397.703125,142335.296875,0.0
1713488367.9889152,155888.9375,144488.125,231733.421875,216116.609375,146556.375,160030.09375,132404.046875,142347.453125,0.0
1713488367.9914303,155891.265625,144487.859375,231728.0625,216103.375,146558.078125,160036.625,132408.25,142347.265625,0.0
1713488367.9939797,155872.40625,144486.953125,231710.53125,216083.359375,146551.71875,160034.75,132404.140625,142339.21875,0.0
1713488367.9964745,155862.125,144480.703125,231694.703125,216082.1875,146546.890625,160029.5625,132405.84375,142346.90625,0.0
1713488367.9989693,155883.390625,144482.671875,231706.78125,216107.671875,146557.890625,160037.609375,132416.03125,142370.421875,0.0
1713488368.016601,155878.03125,144478.640625,231702.75,216104.0,146554.5,160033.9375,132409.140625,142367.46875,0.0
1713488368.0166137,155857.296875,144476.5,231687.546875,216082.640625,146545.734375,160026.078125,132399.484375,142350.75,0.0
1713488368.01662,155850.234375,144476.140625,231675.390625,216078.4375,146540.09375,160017.3125,132396.0,142347.8125,0.0
1713488368.0166333,155873.5625,144474.078125,231681.921875,216093.640625,146542.6875,160018.203125,132401.1875,142355.046875,0.0
1713488368.0166385,155889.390625,144481.765625,231691.40625,216097.84375,146553.953125,160032.59375,132413.265625,142359.96875,0.0
1713488368.0166433,155868.203125,144477.84375,231676.921875,216075.390625,146554.046875,160034.75,132414.59375,142348.25,0.0
1713488368.0166488,155857.203125,144481.859375,231665.734375,216070.5625,146552.796875,160031.34375,132413.078125,142345.484375,0.0
1713488368.0166538,155884.03125,144487.859375,231675.9375,216090.859375,146560.75,160036.078125,132418.71875,142356.75,0.0
1713488368.0166595,155896.984375,144487.578125,231677.984375,216092.734375,146561.5625,160037.0625,132415.40625,142352.546875,0.0
1713488368.0166645,155883.84375,144490.265625,231670.03125,216071.109375,146561.015625,160039.578125,132412.8125,142336.359375,0.0
1713488368.0166693,155866.671875,144494.015625,231658.671875,216063.59375,146558.34375,160031.875,132406.734375,142328.40625,0.0
1713488368.0166745,155879.28125,144493.9375,231663.140625,216082.453125,146559.59375,160027.328125,132404.40625,142334.84375,0.0
1713488368.0166793,155893.859375,144497.859375,231672.796875,216095.15625,146567.90625,160034.390625,132412.453125,142344.40625,0.0
1713488368.0166843,155882.328125,144498.671875,231666.984375,216076.5625,146568.359375,160036.359375,132412.359375,142338.234375,0.0
1713488368.0166893,155866.140625,144499.75,231650.453125,216053.3125,146560.75,160031.25,132403.96875,142327.59375,0.0
1713488368.0166943,155872.046875,144492.859375,231642.84375,216060.46875,146551.546875,160020.890625,132392.703125,142327.0625,0.0
1713488368.0167,155891.71875,144488.296875,231647.59375,216072.796875,146553.421875,160022.3125,132395.109375,142339.046875,0.0
1713488368.0211377,155888.765625,144485.96875,231640.96875,216056.265625,146552.265625,160026.609375,132396.8125,142336.265625,0.0
1713488368.0211508,155869.71875,144487.3125,231627.921875,216044.015625,146550.734375,160028.390625,132402.0,142336.71875,0.0
1713488368.021157,155862.921875,144482.484375,231618.890625,216048.03125,146546.171875,160021.6875,132401.546875,142346.109375,0.0
1713488368.024472,155870.25,144474.0,231617.1875,216052.234375,146542.15625,160017.578125,132398.234375,142354.328125,0.0
1713488368.0244844,155872.484375,144481.59375,231620.953125,216052.0625,146550.921875,160027.953125,132405.84375,142358.359375,0.0
1713488368.0263815,155850.5,144480.4375,231603.953125,216030.78125,146547.34375,160026.875,132403.0625,142347.09375,0.0
1713488368.0347464,155851.5625,144481.859375,231597.515625,216036.6875,146546.890625,160024.546875,132404.234375,142349.234375,0.0
1713488368.0347567,155892.0625,144492.859375,231616.75,216063.78125,146560.578125,160038.40625,132416.75,142363.0,0.0
1713488368.0347624,155892.609375,144498.046875,231618.890625,216059.125,146569.25,160050.84375,132427.46875,142363.90625,0.0
1713488368.034768,155862.5625,144495.453125,231602.265625,216033.90625,146566.5625,160049.234375,132421.84375,142349.59375,0.0
1713488368.034773,155847.1875,144490.4375,231585.546875,216028.546875,146561.375,160041.53125,132418.171875,142348.515625,0.0
1713488368.036419,155866.328125,144484.453125,231586.25,216041.6875,146560.84375,160039.03125,132419.703125,142356.125,0.0
1713488368.0394971,155884.296875,144490.796875,231593.234375,216040.34375,146565.9375,160045.109375,132424.25,142356.921875,0.0
1713488368.039505,155878.921875,144501.265625,231593.234375,216027.921875,146571.03125,160048.6875,132426.140625,142349.328125,0.0
1713488368.0413892,155868.640625,144506.0,231586.875,216029.53125,146573.71875,160044.484375,132427.5625,142351.5625,0.0
1713488368.0438912,155879.640625,144499.125,231585.265625,216036.421875,146569.609375,160036.984375,132425.15625,142355.3125,0.0
1713488368.0464096,155894.75,144501.984375,231592.34375,216044.640625,146572.28125,160037.15625,132424.25,142358.984375,0.0
1713488368.0494792,155883.671875,144504.578125,231588.484375,216030.609375,146573.09375,160039.03125,132422.921875,142351.46875,0.0
1713488368.0494945,155864.359375,144503.046875,231572.75,216020.765625,146567.28125,160028.484375,132416.5625,142347.71875,0.0
1713488368.0513833,155885.0,144504.390625,231578.5625,216039.90625,146570.046875,160028.125,132415.765625,142360.328125,0.0
1713488368.054484,155903.328125,144504.578125,231585.625,216050.71875,146571.84375,160035.8125,132417.640625,142363.90625,0.0
1713488368.0544991,155893.140625,144506.359375,231577.859375,216034.71875,146568.890625,160038.59375,132411.375,142351.203125,0.0
1713488368.0564754,155867.578125,144501.53125,231551.921875,216002.34375,146556.46875,160028.84375,132400.828125,142337.609375,0.0
1713488368.0588915,155882.234375,144501.890625,231550.9375,216012.0,146560.03125,160032.953125,132409.140625,142352.09375,0.0
1713488368.0644927,155907.1875,144505.640625,231563.90625,216030.609375,146572.109375,160044.40625,132422.734375,142374.625,0.0
1713488368.064508,155898.421875,144508.140625,231559.703125,216017.90625,146573.359375,160046.90625,132418.71875,142368.375,0.0
1713488368.066424,155868.375,144503.046875,231536.28125,215995.203125,146561.109375,160037.96875,132408.078125,142350.484375,0.0
1713488368.0707371,155878.03125,144510.65625,231535.65625,216006.015625,146565.140625,160043.0625,132416.03125,142359.96875,0.0
1713488368.0707452,155904.5,144517.53125,231547.1875,216018.171875,146577.828125,160060.3125,132432.390625,142375.078125,0.0
1713488368.080726,155910.125,144525.40625,231550.40625,216012.71875,146587.3125,160073.546875,132440.890625,142372.75,0.0
1713488368.0807412,155907.8125,144537.5625,231548.703125,216006.90625,146596.96875,160083.46875,132446.96875,142371.140625,0.0
1713488368.0973876,155912.015625,144536.484375,231538.25,216005.75,146593.921875,160078.640625,132447.59375,142372.9375,0.0
1713488368.0974023,155944.640625,144533.890625,231545.390625,216021.390625,146594.375,160076.9375,132449.109375,142379.8125,0.0
1713488368.0974076,155946.15625,144529.875,231541.375,216009.140625,146590.53125,160073.640625,132443.75,142373.90625,0.0
1713488368.100736,155913.96875,144522.984375,231523.046875,215983.484375,146579.53125,160063.703125,132431.234375,142352.984375,0.0
1713488368.1007435,155897.703125,144521.640625,231510.4375,215984.375,146573.984375,160053.515625,132425.421875,142352.09375,0.0
1713488368.1251893,155910.40625,144516.1875,231512.9375,215996.0,146575.0625,160051.8125,132426.765625,142359.96875,0.0
1713488368.1502094,155923.625,144529.421875,231527.96875,216012.1875,146589.359375,160065.140625,132437.9375,142366.578125,0.0
1713488368.2336664,155907.265625,144536.40625,231523.21875,215995.109375,146593.75,160068.625,132437.9375,142359.96875,0.0
1713488368.2336905,155881.78125,144527.640625,231498.546875,215976.328125,146580.875,160054.765625,132423.625,142348.25,0.0
1713488368.2337008,155907.8125,144530.234375,231506.328125,215999.765625,146588.5625,160061.921875,132431.765625,142363.71875,0.0
1713488368.2825422,155917.28125,144527.1875,231505.96875,216001.1875,146589.625,160065.40625,132434.1875,142366.578125,0.0
1713488368.2825563,155900.390625,144524.6875,231496.046875,215979.640625,146584.453125,160063.265625,132429.0,142352.28125,0.0
1713488368.2825627,155867.75,144512.265625,231470.109375,215958.90625,146566.5625,160044.9375,132415.9375,142335.921875,0.0
1713488368.2859197,155876.0625,144501.625,231461.890625,215959.96875,146559.59375,160038.765625,132415.9375,142340.65625,0.0
1713488368.2859316,155885.984375,144494.5625,231457.78125,215959.34375,146554.859375,160036.078125,132414.953125,142343.421875,0.0
1713488368.290316,155868.828125,144492.328125,231446.328125,215933.953125,146551.8125,160035.71875,132412.984375,142339.3125,0.0
1713488368.2928226,155848.703125,144492.140625,231429.34375,215919.03125,146545.828125,160031.171875,132406.5625,142336.09375,0.0
1713488368.295318,155871.59375,144496.078125,231432.5625,215936.453125,146548.5,160030.890625,132410.75,142349.859375,0.0
1713488368.2978172,155905.921875,144507.703125,231452.421875,215959.25,146563.875,160045.375,132427.921875,142371.328125,0.0
1713488368.3003197,155907.53125,144519.0625,231457.59375,215953.796875,146573.625,160054.40625,132434.453125,142370.15625,0.0
1713488368.3028076,155894.390625,144517.359375,231445.0,215942.984375,146569.609375,160046.1875,132427.65625,142356.296875,0.0
1713488368.305351,155893.671875,144507.25,231432.03125,215942.359375,146565.140625,160039.75,132429.078125,142358.53125,0.0
1713488368.3078268,155907.1875,144506.09375,231436.953125,215950.046875,146573.265625,160050.5625,132437.046875,142368.015625,0.0
1713488368.3103423,155903.25,144513.515625,231442.578125,215952.640625,146581.765625,160058.53125,132434.0,142367.390625,0.0
1713488368.3127584,155877.859375,144517.890625,231430.515625,215930.734375,146580.78125,160059.59375,132432.9375,142358.0,0.0
1713488368.3152256,155875.34375,144520.671875,231423.890625,215932.078125,146582.203125,160060.140625,132440.265625,142365.859375,0.0
1713488368.3177083,155905.75,144520.671875,231431.84375,215950.9375,146587.578125,160064.875,132449.015625,142379.1875,0.0
1713488368.3202424,155906.828125,144513.59375,231426.046875,215943.15625,146582.84375,160060.671875,132440.171875,142368.90625,0.0
1713488368.3227084,155887.875,144509.484375,231411.640625,215920.453125,146574.078125,160052.625,132427.5625,142347.8125,0.0
1713488368.3252163,155878.84375,144503.234375,231393.40625,215910.625,146560.75,160036.796875,132416.390625,142337.703125,0.0
1713488368.32773,155909.0625,144501.703125,231399.125,215923.9375,146561.640625,160035.1875,132416.84375,142347.625,0.0
1713488368.3301983,155930.6875,144513.6875,231412.1875,215932.25,146573.625,160047.890625,132426.84375,142357.1875,0.0
1713488368.3327336,155922.203125,144527.375,231415.21875,215923.578125,146580.59375,160057.984375,132428.546875,142347.0,0.0
1713488368.335215,155897.078125,144518.609375,231394.84375,215912.3125,146568.984375,160044.84375,132414.953125,142331.09375,0.0
1713488368.337754,155914.875,144510.921875,231388.9375,215917.6875,146562.90625,160035.453125,132412.453125,142335.640625,0.0
1713488368.3402135,155934.359375,144511.015625,231390.90625,215920.546875,146561.5625,160033.9375,132411.734375,142340.296875,0.0
1713488368.342734,155907.625,144506.09375,231374.359375,215888.71875,146552.171875,160029.015625,132402.53125,142326.4375,0.0
1713488368.3452277,155883.84375,144505.640625,231359.15625,215878.96875,146546.625,160024.546875,132401.546875,142323.9375,0.0
1713488368.3477328,155901.90625,144501.890625,231362.03125,215894.53125,146550.65625,160030.546875,132412.28125,142345.125,0.0
1713488368.3501744,155921.125,144503.953125,231371.046875,215904.265625,146557.09375,160036.625,132415.046875,142358.71875,0.0
1713488368.3526225,155913.53125,144511.984375,231371.140625,215896.21875,146564.78125,160045.203125,132420.59375,142358.0,0.0
1713488368.359687,155891.265625,144512.078125,231355.40625,215882.09375,146561.015625,160040.375,132416.921875,142350.484375,0.0
1713488368.3596978,155915.3125,144518.078125,231361.3125,215901.40625,146570.765625,160046.90625,132427.203125,142364.171875,0.0
1713488368.359704,155943.921875,144526.46875,231375.703125,215918.84375,146583.546875,160061.125,132439.28125,142379.1875,0.0
1713488368.3597093,155933.46875,144531.390625,231374.453125,215907.84375,146589.359375,160068.265625,132442.40625,142374.0,0.0
1713488368.3597143,155899.484375,144524.78125,231352.90625,215884.15625,146582.125,160058.875,132435.96875,142363.8125,0.0
1713488368.3597193,155895.203125,144515.125,231338.6875,215884.515625,146576.75,160051.46875,132437.046875,142371.953125,0.0
1713488368.3597243,155915.9375,144512.34375,231344.234375,215895.59375,146577.296875,160051.8125,132436.953125,142377.9375,0.0
1713488368.3614717,155912.71875,144516.640625,231343.25,215887.1875,146575.421875,160050.75,132431.328125,142364.53125,0.0
1713488368.3639708,155887.25,144516.8125,231327.953125,215864.390625,146569.15625,160045.921875,132427.828125,142347.0,0.0
1713488368.3664265,155884.03125,144517.71875,231320.8125,215868.328125,146567.90625,160044.40625,132428.375,142346.90625,0.0
1713488368.3843987,155909.421875,144520.84375,231331.796875,215887.640625,146573.8125,160052.265625,132433.5625,142353.34375,0.0
1713488368.3844297,155907.09375,144513.875,231325.71875,215877.453125,146568.703125,160049.578125,132424.96875,142341.1875,0.0
1713488368.3844352,155884.5625,144504.390625,231304.625,215851.703125,146555.203125,160038.765625,132408.96875,142318.75,0.0
1713488368.3844404,155872.765625,144495.359375,231283.703125,215841.6875,146544.296875,160026.078125,132402.359375,142317.859375,0.0
1713488368.3844454,155909.953125,144497.515625,231294.34375,215862.25,146553.328125,160033.046875,132413.96875,142339.40625,0.0
1713488368.3844504,155933.5625,144501.703125,231300.59375,215865.375,146561.640625,160040.546875,132421.9375,142347.890625,0.0
1713488368.3844552,155930.421875,144511.359375,231300.6875,215859.75,146568.703125,160044.9375,132423.1875,142345.125,0.0
1713488368.3844602,155922.296875,144511.90625,231289.6875,215851.703125,146566.75,160037.421875,132422.203125,142348.796875,0.0
1713488368.384466,155947.765625,144511.71875,231293.71875,215861.359375,146572.015625,160041.890625,132432.125,142368.015625,0.0
1713488368.3844707,155952.859375,144511.984375,231294.25,215862.96875,146573.53125,160045.921875,132431.328125,142372.03125,0.0
1713488368.384476,155923.90625,144507.15625,231277.171875,215835.421875,146565.3125,160043.421875,132418.453125,142351.828125,0.0
1713488368.3844812,155902.4375,144500.09375,231256.96875,215820.9375,146556.015625,160034.5625,132412.015625,142343.609375,0.0
1713488368.384486,155928.546875,144498.9375,231260.453125,215840.703125,146559.859375,160037.15625,132420.765625,142359.25,0.0
1713488368.3844907,155952.6875,144502.6875,231270.296875,215850.8125,146567.28125,160044.40625,132426.84375,142367.46875,0.0
1713488368.3844955,155954.65625,144513.515625,231272.53125,215837.84375,146573.359375,160053.609375,132431.765625,142360.328125,0.0
1713488368.3845005,155945.09375,144523.53125,231266.890625,215831.671875,146577.203125,160056.5625,132437.40625,142359.609375,0.0
1713488368.384506,155955.640625,144527.109375,231271.546875,215848.125,146583.109375,160058.53125,132446.515625,142374.0,0.0
1713488368.3845108,155967.625,144525.046875,231276.109375,215854.03125,146583.375,160058.875,132442.578125,142376.421875,0.0
1713488368.384516,155957.421875,144532.109375,231274.3125,215842.046875,146584.625,160065.234375,132440.078125,142366.140625,0.0
1713488368.386438,155928.90625,144529.0625,231259.109375,215824.875,146582.125,160064.96875,132441.0625,142358.0,0.0
1713488368.3895092,155934.625,144525.9375,231255.546875,215835.78125,146584.359375,160064.6875,132447.765625,142370.6875,0.0
1713488368.3895252,155948.21875,144520.21875,231258.84375,215850.625,146585.78125,160063.359375,132444.46875,142378.296875,0.0
1713488368.3914237,155930.0625,144514.046875,231245.4375,215831.046875,146579.171875,160062.734375,132439.375,142365.59375,0.0
1713488368.3939245,155906.375,144511.1875,231226.484375,215799.484375,146569.15625,160056.921875,132427.296875,142345.125,0.0
1713488368.3964396,155892.96875,144502.6875,231212.359375,215797.078125,146558.515625,160042.875,132419.15625,142339.3125,0.0
1713488368.3989236,155916.5625,144507.796875,231226.21875,215818.359375,146566.75,160046.90625,132433.734375,142356.203125,0.0
1713488368.4014363,155912.09375,144505.46875,231223.625,215805.390625,146567.453125,160049.5,132434.546875,142352.71875,0.0
1713488368.403927,155886.265625,144502.515625,231205.734375,215780.171875,146558.25,160043.0625,132421.9375,142332.875,0.0
1713488368.4064476,155868.375,144491.875,231186.078125,215772.484375,146543.765625,160026.34375,132409.328125,142326.171875,0.0
1713488368.408938,155889.125,144486.515625,231190.625,215786.515625,146542.15625,160021.78125,132405.296875,142335.734375,0.0
1713488368.4120293,155895.734375,144489.1875,231192.421875,215787.15625,146546.453125,160027.859375,132409.6875,142340.828125,0.0
1713488368.4120471,155875.0,144492.953125,231181.6875,215764.796875,146544.65625,160029.921875,132406.28125,142332.703125,0.0
1713488368.4139223,155860.421875,144492.328125,231168.546875,215757.90625,146541.171875,160025.09375,132405.296875,142336.09375,0.0
1713488368.4446392,155884.921875,144493.65625,231179.28125,215783.390625,146550.828125,160031.53125,132416.65625,142356.125,0.0
1713488368.4446523,155896.984375,144498.671875,231187.234375,215789.46875,146561.109375,160043.6875,132428.546875,142368.8125,0.0
1713488368.446494,155878.390625,144499.65625,231179.359375,215771.859375,146558.96875,160042.4375,132423.0,142354.25,0.0
1713488368.448981,155853.625,144494.921875,231160.234375,215756.21875,146550.296875,160030.71875,132414.0625,142343.609375,0.0
1713488368.45147,155866.859375,144491.96875,231160.328125,215767.484375,146551.28125,160028.578125,132417.640625,142354.15625,0.0
1713488368.4545653,155893.953125,144504.75,231176.765625,215783.578125,146563.796875,160040.828125,132429.71875,142365.328125,0.0
1713488368.4545777,155890.109375,144513.421875,231178.203125,215775.796875,146565.40625,160041.8125,132424.703125,142350.3125,0.0
1713488368.4570048,155867.296875,144506.0,231158.171875,215759.703125,146555.5625,160031.703125,132413.625,142332.421875,0.0
1713488368.457018,155880.171875,144501.984375,231155.5,215766.578125,146556.015625,160033.046875,132418.0,142339.84375,0.0
1713488368.4595563,155897.875,144502.875,231162.46875,215772.84375,146562.90625,160042.609375,132425.15625,142348.25,0.0
1713488368.4595687,155883.671875,144500.734375,231153.96875,215753.4375,146559.859375,160041.8125,132419.78125,142335.109375,0.0
1713488368.465253,155864.0,144499.296875,231136.890625,215734.3125,146555.125,160039.296875,132416.75,142324.109375,0.0
1713488368.5195775,155865.0625,144495.90625,231127.78125,215738.953125,146552.078125,160032.78125,132420.140625,142331.53125,0.0
1713488368.5195897,155873.921875,144484.546875,231123.84375,215744.046875,146544.84375,160024.640625,132415.40625,142335.640625,0.0
1713488368.5727143,155873.5625,144483.828125,231125.28125,215742.625,146550.5625,160031.703125,132427.296875,142340.46875,0.0
1713488368.5727496,155854.609375,144484.28125,231112.9375,215720.1875,146546.71875,160025.359375,132418.0,142334.125,0.0
1713488368.572766,155839.5,144466.125,231090.578125,215712.046875,146527.140625,159998.625,132395.921875,142325.453125,0.0
1713488368.5989556,155860.421875,144461.484375,231093.890625,215727.25,146527.40625,159997.734375,132399.84375,142338.953125,0.0
1713488368.5989685,155866.859375,144463.171875,231094.25,215723.140625,146532.5,160005.234375,132403.96875,142339.765625,0.0
1713488368.5989745,155848.890625,144467.203125,231080.921875,215697.109375,146529.90625,160008.453125,132401.734375,142325.0,0.0
1713488368.624648,155840.84375,144466.84375,231069.84375,215697.828125,146524.71875,160002.734375,132393.6875,142320.984375,0.0
1713488368.62466,155866.140625,144467.921875,231079.859375,215716.15625,146530.53125,160008.8125,132397.53125,142331.984375,0.0
1713488368.6264503,155871.59375,144473.71875,231085.125,215717.328125,146538.21875,160019.71875,132403.78125,142333.953125,0.0
1713488368.629056,155859.078125,144481.5,231080.75,215703.46875,146541.078125,160023.65625,132403.609375,142325.09375,0.0
1713488368.6315124,155842.359375,144476.40625,231065.109375,215693.625,146534.5625,160012.21875,132397.078125,142322.859375,0.0
1713488368.6340685,155851.75,144467.28125,231060.90625,215700.6875,146530.796875,160006.21875,132396.625,142330.28125,0.0
1713488368.6365955,155870.875,144472.5625,231068.5,215706.765625,146535.890625,160010.421875,132400.828125,142336.625,0.0
1713488368.6390152,155867.125,144482.484375,231068.40625,215696.765625,146542.328125,160016.140625,132402.4375,142331.984375,0.0
1713488368.6415496,155848.34375,144481.234375,231051.15625,215679.0625,146537.421875,160009.984375,132397.96875,142323.84375,0.0
1713488368.6440227,155867.9375,144483.65625,231057.234375,215699.078125,146545.90625,160017.75,132410.046875,142338.859375,0.0
1713488368.6465583,155898.328125,144491.875,231070.375,215716.25,146558.078125,160032.953125,132423.28125,142352.09375,0.0
1713488368.6490324,155889.296875,144490.09375,231059.921875,215694.609375,146557.359375,160036.265625,132421.484375,142343.25,0.0
1713488368.651487,155872.484375,144490.4375,231045.34375,215682.0,146555.125,160032.78125,132418.625,142338.234375,0.0
1713488368.6540692,155883.3125,144485.078125,231041.5,215692.015625,146551.28125,160025.71875,132417.015625,142344.046875,0.0
1713488368.656523,155904.140625,144481.859375,231044.984375,215700.15625,146548.859375,160024.734375,132414.953125,142346.90625,0.0
1713488368.6589923,155890.1875,144484.71875,231038.453125,215682.625,146546.359375,160024.734375,132413.34375,142337.609375,0.0
1713488368.6616745,155852.546875,144478.28125,231014.046875,215650.890625,146533.484375,160013.828125,132401.28125,142319.828125,0.0
1713488368.6639423,155855.6875,144473.1875,231008.953125,215659.828125,146530.796875,160008.453125,132402.703125,142328.5,0.0
1713488368.6664577,155881.609375,144475.421875,231018.796875,215676.828125,146535.265625,160014.0,132408.96875,142340.296875,0.0
1713488368.6689932,155875.625,144473.28125,231012.265625,215665.640625,146530.890625,160014.984375,132400.296875,142327.25,0.0
1713488368.6714325,155853.625,144477.03125,231001.265625,215647.9375,146530.4375,160017.84375,132396.71875,142315.625,0.0
1713488368.6739428,155848.703125,144477.65625,230992.859375,215647.046875,146530.09375,160012.65625,132394.390625,142320.8125,0.0
1713488368.6764596,155883.84375,144487.21875,231011.90625,215675.03125,146549.3125,160029.015625,132411.828125,142350.3125,0.0
1713488368.6789393,155885.0,144489.546875,231011.1875,215667.515625,146556.1875,160037.0625,132418.625,142356.03125,0.0
1713488368.681438,155866.40625,144492.953125,231001.0,215651.34375,146556.015625,160037.6875,132417.1875,142347.453125,0.0
1713488368.6864595,155854.96875,144493.21875,230990.890625,215656.53125,146552.609375,160031.078125,132416.03125,142349.140625,0.0
1713488368.6889277,155872.484375,144488.03125,230994.46875,215666.09375,146553.0625,160028.9375,132418.796875,142359.703125,0.0
1713488368.691427,155883.21875,144493.65625,231000.734375,215663.40625,146558.703125,160033.9375,132423.28125,142366.40625,0.0
1713488368.6977658,155869.359375,144501.625,230995.984375,215648.65625,146561.109375,160037.25,132422.828125,142358.53125,0.0
1713488368.7042253,155849.875,144495.265625,230977.21875,215638.46875,146550.375,160024.109375,132411.828125,142346.734375,0.0
1713488368.7042391,155875.53125,144492.6875,230984.1875,215658.84375,146554.765625,160027.671875,132417.375,142360.328125,0.0
1713488368.704245,155889.390625,144496.25,230992.6875,215666.984375,146563.875,160040.203125,132426.765625,142370.25,0.0
1713488368.7042508,155865.515625,144493.3125,230978.28125,215639.1875,146560.3125,160042.34375,132424.25,142354.515625,0.0
1713488368.7042558,155843.25,144490.09375,230963.171875,215631.21875,146557.265625,160040.109375,132420.953125,142348.515625,0.0
1713488368.704261,155866.671875,144496.25,230973.90625,215653.3125,146568.53125,160050.203125,132436.859375,142368.640625,0.0
1713488368.708288,155877.140625,144487.140625,230971.140625,215653.484375,146563.34375,160044.484375,132433.828125,142365.6875,0.0
1713488368.7083006,155861.046875,144485.796875,230960.40625,215636.3125,146559.953125,160041.8125,132428.8125,142352.71875,0.0
1713488368.7083063,155840.484375,144483.203125,230942.96875,215621.5625,146553.328125,160032.328125,132418.265625,142342.796875,0.0
1713488368.7083125,155841.109375,144473.09375,230931.0,215618.4375,146546.453125,160023.203125,132414.59375,142347.8125,0.0
1713488368.7120361,155862.921875,144469.078125,230934.03125,215625.953125,146547.34375,160025.359375,132417.8125,142355.046875,0.0
1713488368.7120523,155860.515625,144471.484375,230929.5625,215612.453125,146546.09375,160027.046875,132413.796875,142343.875,0.0
1713488368.712058,155844.953125,144475.78125,230915.96875,215597.15625,146540.09375,160023.390625,132409.859375,142331.171875,0.0
1713488368.7120633,155858.625,144473.546875,230907.75,215601.890625,146530.71875,160011.3125,132401.90625,142325.90625,0.0
1713488368.7151225,155895.921875,144473.71875,230919.28125,215622.109375,146536.609375,160015.4375,132405.578125,142334.84375,0.0
1713488368.7151294,155895.640625,144473.90625,230916.234375,215608.609375,146537.953125,160016.953125,132402.703125,142330.109375,0.0
1713488368.7151346,155869.984375,144473.453125,230900.59375,215582.40625,146532.40625,160009.53125,132394.3125,142318.84375,0.0
1713488368.7195113,155873.5625,144477.75,230901.484375,215597.421875,146539.203125,160008.546875,132401.8125,142336.1875,0.0
1713488368.7195315,155906.015625,144484.453125,230918.125,215624.078125,146553.515625,160021.875,132419.15625,142363.71875,0.0
1713488368.7195368,155906.46875,144483.65625,230913.46875,215615.578125,146555.390625,160025.09375,132420.0625,142365.421875,0.0
1713488368.719542,155886.796875,144485.171875,230898.09375,215588.75,146551.28125,160022.671875,132413.625,142353.265625,0.0
1713488368.7215335,155881.15625,144488.75,230888.796875,215587.59375,146547.78125,160020.53125,132410.3125,142354.0625,0.0
1713488368.727101,155898.421875,144483.375,230891.203125,215600.375,146546.171875,160019.984375,132410.75,142361.9375,0.0
1713488368.7271323,155903.421875,144483.46875,230894.421875,215602.34375,146551.71875,160028.03125,132419.421875,142368.015625,0.0
1713488368.7289948,155879.28125,144483.375,230880.828125,215578.390625,146548.59375,160027.328125,132415.765625,142351.828125,0.0
1713488368.7315147,155864.796875,144478.90625,230863.484375,215567.296875,146540.8125,160020.078125,132412.015625,142342.0,0.0
1713488368.733934,155883.9375,144475.25,230864.5625,215579.359375,146541.078125,160021.515625,132416.5625,142347.984375,0.0
1713488368.7365203,155892.421875,144474.078125,230867.875,215585.171875,146544.578125,160025.71875,132420.59375,142349.953125,0.0
1713488368.7415004,155874.640625,144478.90625,230862.6875,215570.96875,146547.078125,160028.75,132418.359375,142339.765625,0.0
1713488368.743991,155855.234375,144483.5625,230852.5,215562.828125,146545.109375,160026.15625,132418.71875,142334.9375,0.0
1713488368.7465265,155871.59375,144481.0625,230853.390625,215572.578125,146543.3125,160022.3125,132420.765625,142340.828125,0.0
1713488368.74892,155896.265625,144480.609375,230861.53125,215583.65625,146548.140625,160028.03125,132425.515625,142348.96875,0.0
1713488368.7521195,155877.765625,144474.171875,230845.78125,215554.953125,146536.96875,160021.515625,132409.328125,142326.96875,0.0
1713488368.75214,155852.828125,144471.484375,230826.296875,215537.609375,146527.21875,160013.734375,132399.9375,142314.28125,0.0
1713488368.75395,155868.203125,144475.6875,230830.234375,215555.140625,146531.609375,160015.078125,132403.0625,142325.90625,0.0
1713488368.7570186,155897.25,144485.796875,230847.84375,215576.234375,146543.9375,160026.15625,132411.5625,142341.546875,0.0
1713488368.757038,155876.15625,144480.4375,230834.703125,215544.671875,146537.234375,160020.53125,132404.40625,142327.0625,0.0
1713488368.7664409,155851.75,144481.765625,230822.546875,215532.609375,146534.375,160013.375,132401.09375,142320.1875,0.0
1713488368.7708173,155864.53125,144489.734375,230830.765625,215554.59375,146542.25,160013.734375,132401.8125,142338.328125,0.0
1713488368.77083,155887.421875,144488.296875,230839.4375,215570.515625,146545.640625,160014.71875,132404.765625,142350.21875,0.0
1713488368.7795565,155890.640625,144494.109375,230840.515625,215566.140625,146549.125,160017.125,132405.390625,142350.125,0.0
1713488368.7795691,155863.375,144493.9375,230823.703125,215542.796875,146547.15625,160015.703125,132402.4375,142341.28125,0.0
1713488368.7852836,155864.359375,144490.265625,230815.484375,215545.125,146546.359375,160012.65625,132405.484375,142349.234375,0.0
1713488368.7895668,155889.484375,144489.1875,230824.15625,215563.453125,146552.265625,160019.984375,132413.625,142363.0,0.0
1713488368.7895796,155890.375,144495.09375,230825.5,215559.15625,146556.015625,160030.1875,132415.859375,142357.46875,0.0
1713488368.7914824,155860.15625,144491.515625,230807.796875,215533.234375,146552.890625,160031.34375,132413.265625,142342.890625,0.0
1713488368.8065052,155849.515625,144488.296875,230796.34375,215532.609375,146552.4375,160031.53125,132418.359375,142347.359375,0.0
1713488368.8114543,155872.84375,144486.515625,230802.875,215547.984375,146555.828125,160036.171875,132427.65625,142362.109375,0.0
1713488368.811472,155868.640625,144477.21875,230794.375,215537.25,146549.75,160031.875,132426.5,142357.734375,0.0
1713488368.8114772,155855.234375,144485.078125,230786.59375,215517.5,146550.03125,160032.953125,132424.703125,142347.625,0.0
1713488368.8183105,155845.578125,144484.90625,230773.015625,215508.28125,146544.03125,160026.25,132423.71875,142342.53125,0.0
1713488368.8183188,155866.40625,144477.75,230772.921875,215517.234375,146540.375,160023.484375,132426.3125,142346.203125,0.0
1713488368.8202796,155880.453125,144476.5,230774.890625,215519.28125,146540.1875,160024.015625,132424.171875,142345.125,0.0
1713488368.8353179,155857.921875,144472.203125,230760.140625,215495.0625,146531.609375,160017.671875,132413.265625,142327.25,0.0
1713488368.8615544,155841.015625,144473.71875,230749.40625,215496.671875,146530.53125,160013.546875,132411.921875,142325.71875,0.0
1713488368.8615828,155857.203125,144473.015625,230752.0,215510.53125,146532.765625,160012.65625,132413.625,142332.609375,0.0
1713488368.861589,155871.15625,144471.3125,230755.125,215507.125,146533.390625,160014.0,132410.3125,142333.765625,0.0
1713488368.885348,155860.6875,144479.09375,230754.59375,215498.1875,146539.203125,160022.40625,132411.5625,142330.8125,0.0
1713488368.912069,155833.78125,144477.03125,230737.875,215481.28125,146534.46875,160015.609375,132402.53125,142321.34375,0.0
1713488368.9121192,155842.71875,144468.453125,230732.515625,215492.828125,146529.453125,160007.65625,132395.921875,142327.6875,0.0
1713488368.9121842,155868.828125,144470.59375,230743.6875,215510.171875,146537.59375,160017.125,132404.140625,142346.46875,0.0
1713488368.9122155,155871.0625,144481.59375,230748.15625,215506.046875,146548.765625,160029.203125,132413.703125,142353.265625,0.0
1713488368.935763,155854.25,144487.046875,230738.328125,215495.953125,146550.375,160026.703125,132413.890625,142353.171875,0.0
1713488368.935784,155850.140625,144479.984375,230727.140625,215493.265625,146545.640625,160018.03125,132413.53125,142362.640625,0.0
1713488368.961454,155876.515625,144481.5,230739.75,215512.671875,146555.296875,160025.265625,132425.953125,142383.21875,0.0
1713488368.9639292,155874.90625,144482.671875,230738.59375,215505.96875,146556.640625,160026.25,132423.453125,142379.1875,0.0
1713488368.966995,155852.375,144479.71875,230723.84375,215482.984375,146551.8125,160021.421875,132418.625,142365.6875,0.0
1713488368.9670076,155847.1875,144478.828125,230715.515625,215482.890625,146551.09375,160018.375,132422.375,142366.3125,0.0
1713488368.968906,155886.171875,144493.03125,230739.9375,215517.40625,146572.015625,160037.96875,132442.765625,142387.0625,0.0
1713488368.9714513,155885.90625,144494.5625,230737.515625,215507.84375,146572.28125,160040.828125,132442.5,142379.8125,0.0
1713488368.9739738,155869.0,144496.25,230723.296875,215482.546875,146563.875,160036.796875,132431.234375,142358.0,0.0
1713488368.9764016,155865.34375,144497.328125,230715.515625,215484.234375,146562.1875,160034.03125,132430.515625,142354.515625,0.0
1713488368.9789393,155901.015625,144509.671875,230736.078125,215511.234375,146576.671875,160045.921875,132444.828125,142369.265625,0.0
1713488368.9814634,155922.640625,144518.15625,230746.546875,215519.375,146584.53125,160055.84375,132450.0,142369.0,0.0
1713488368.9839272,155925.859375,144529.875,230745.828125,215512.125,146589.09375,160063.625,132452.6875,142362.203125,0.0
1713488368.9864292,155918.09375,144524.515625,230727.5,215494.4375,146579.96875,160054.40625,132444.90625,142355.671875,0.0
1713488368.9888985,155947.5,144512.96875,230726.34375,215506.859375,146573.265625,160047.703125,132438.921875,142356.84375,0.0
1713488368.9914427,155943.5625,144501.4375,230716.140625,215494.15625,146563.609375,160040.28125,132430.515625,142345.84375,0.0
1713488368.993915,155927.828125,144506.625,230709.796875,215479.59375,146567.015625,160045.921875,132433.109375,142338.234375,0.0
1713488368.996386,155904.9375,144510.375,230697.640625,215470.640625,146564.78125,160042.96875,132429.359375,142338.515625,0.0
1713488368.9989247,155910.046875,144502.34375,230695.140625,215480.03125,146558.25,160031.25,132419.34375,142348.171875,0.0
1713488369.0014489,155924.53125,144502.96875,230704.609375,215493.984375,146565.578125,160036.625,132423.546875,142364.890625,0.0
1713488369.0038934,155905.484375,144504.21875,230699.34375,215479.59375,146567.8125,160039.125,132420.5,142365.421875,0.0
1713488369.006421,155871.0625,144496.796875,230677.96875,215458.484375,146559.5,160029.109375,132415.671875,142363.71875,0.0
1713488369.0139291,155872.484375,144490.984375,230670.375,215462.421875,146555.5625,160020.703125,132417.375,142378.734375,0.0
1713488369.0164256,155889.125,144486.421875,230672.34375,215472.96875,146555.03125,160016.765625,132419.15625,142387.0625,0.0
1713488369.0189252,155880.453125,144485.96875,230667.953125,215460.546875,146555.296875,160017.671875,132422.5625,142381.15625,0.0
1713488369.0213983,155861.21875,144492.140625,230660.8125,215452.046875,146558.421875,160019.984375,132425.515625,142376.5,0.0
1713488369.0264397,155852.375,144483.46875,230649.8125,215453.21875,146553.953125,160012.390625,132421.125,142375.515625,0.0
1713488369.0289323,155872.046875,144482.484375,230657.671875,215464.484375,146558.875,160019.640625,132429.265625,142381.421875,0.0
1713488369.0320334,155870.25,144490.71875,230660.09375,215456.4375,146566.03125,160030.0,132437.484375,142374.71875,0.0
1713488369.032048,155844.6875,144497.6875,230649.8125,215442.3125,146569.609375,160036.53125,132436.328125,142357.640625,0.0
1713488369.035068,155841.640625,144501.171875,230642.125,215439.09375,146570.765625,160039.484375,132437.578125,142352.984375,0.0
1713488369.035082,155866.765625,144497.59375,230647.296875,215449.8125,146571.484375,160041.1875,132442.859375,142356.125,0.0
1713488369.035115,155876.515625,144505.828125,230652.671875,215449.8125,146578.09375,160052.890625,132448.390625,142352.640625,0.0
1713488369.0394363,155863.28125,144515.125,230648.015625,215435.59375,146586.59375,160068.71875,132457.515625,142349.328125,0.0
1713488369.039445,155857.734375,144516.46875,230637.375,215433.1875,146581.859375,160064.78125,132450.546875,142348.34375,0.0
1713488369.0394504,155871.5,144504.296875,230633.796875,215440.34375,146572.90625,160055.125,132439.546875,142347.1875,0.0
1713488369.039456,155868.734375,144494.5625,230628.796875,215436.40625,146570.140625,160052.71875,132435.34375,142346.109375,0.0
1713488369.04203,155847.90625,144503.046875,230622.53125,215422.015625,146574.796875,160057.625,132436.859375,142341.1875,0.0
1713488369.0420437,155832.078125,144501.0,230606.625,215411.640625,146566.75,160047.796875,132429.171875,142332.25,0.0
1713488369.0444572,155853.453125,144492.859375,230606.171875,215423.265625,146557.09375,160035.8125,132418.09375,142328.765625,0.0
1713488369.044464,155872.21875,144489.015625,230607.78125,215426.390625,146551.546875,160027.40625,132409.140625,142328.859375,0.0
1713488369.04647,155865.0625,144489.28125,230601.890625,215413.0625,146548.953125,160021.515625,132405.578125,142331.890625,0.0
1713488369.048991,155841.734375,144477.484375,230579.171875,215397.78125,146538.40625,160006.21875,132400.03125,142338.234375,0.0
1713488369.0520697,155849.515625,144469.609375,230574.171875,215406.0,146539.296875,160006.046875,132411.375,142360.140625,0.0
1713488369.0520828,155857.921875,144467.109375,230574.609375,215406.0,146544.65625,160016.953125,132422.296875,142372.390625,0.0
1713488369.0539267,155844.6875,144471.21875,230568.8125,215388.65625,146547.078125,160024.28125,132422.921875,142366.046875,0.0
1713488369.0564237,155815.984375,144463.71875,230547.890625,215367.828125,146536.796875,160009.984375,132413.078125,142351.921875,0.0
1713488369.0840693,155830.46875,144467.5625,230551.1875,215379.09375,146541.171875,160009.796875,132417.46875,142362.296875,0.0
1713488369.086562,155870.34375,144485.53125,230576.9375,215408.515625,146560.65625,160028.21875,132435.796875,142380.890625,0.0
1713488369.0896232,155861.765625,144486.875,230573.09375,215394.46875,146559.859375,160029.375,132431.59375,142363.984375,0.0
1713488369.0896354,155847.546875,144497.234375,230567.734375,215389.828125,146563.609375,160035.640625,132434.625,142352.984375,0.0
1713488369.0915687,155861.5,144499.828125,230569.25,215402.96875,146567.546875,160039.75,132438.828125,142359.25,0.0
1713488369.094622,155875.171875,144487.578125,230563.0,215396.984375,146563.171875,160040.109375,132439.640625,142361.03125,0.0
1713488369.0946348,155880.71875,144489.1875,230558.078125,215383.75,146566.828125,160050.390625,132446.4375,142357.46875,0.0
1713488369.0966015,155855.328125,144482.84375,230536.796875,215358.4375,146559.40625,160046.359375,132437.9375,142339.84375,0.0
1713488369.0990033,155848.796875,144479.625,230527.765625,215363.0,146559.234375,160043.5,132441.328125,142349.421875,0.0
1713488369.1014483,155870.4375,144481.0625,230540.90625,215382.9375,146568.265625,160050.390625,132448.3125,142366.84375,0.0
1713488369.10451,155869.890625,144480.34375,230538.046875,215374.359375,146561.203125,160043.328125,132436.5,142349.6875,0.0
1713488369.1045215,155857.296875,144485.078125,230528.65625,215351.828125,146554.40625,160038.3125,132423.984375,142323.046875,0.0
1713488369.108992,155855.953125,144486.25,230519.625,215350.125,146544.65625,160024.109375,132408.078125,142309.546875,0.0
1713488369.1140392,155877.140625,144475.78125,230517.578125,215360.140625,146535.71875,160014.984375,132402.265625,142312.578125,0.0
1713488369.1171384,155887.328125,144472.921875,230515.25,215359.6875,146529.640625,160009.703125,132398.421875,142317.5,0.0
1713488369.117184,155868.46875,144469.609375,230499.96875,215331.0,146525.609375,160007.734375,132397.53125,142319.203125,0.0
1713488369.1189935,155856.3125,144466.65625,230485.828125,215323.84375,146521.953125,160004.34375,132397.078125,142331.0,0.0
1713488369.1214988,155878.75,144464.609375,230493.703125,215348.34375,146528.5625,160009.53125,132408.34375,142355.671875,0.0
1713488369.1239984,155891.53125,144467.015625,230500.40625,215352.71875,146537.421875,160023.65625,132421.125,142365.15625,0.0
1713488369.1320949,155873.390625,144468.359375,230489.40625,215326.34375,146537.59375,160028.21875,132419.078125,142349.859375,0.0
1713488369.1321115,155868.90625,144483.203125,230492.625,215334.296875,146551.546875,160038.046875,132429.796875,142357.015625,0.0
1713488369.1345823,155883.75,144483.296875,230497.90625,215353.078125,146557.09375,160038.59375,132434.0,142365.78125,0.0
1713488369.134595,155905.296875,144489.015625,230507.46875,215360.046875,146565.671875,160044.84375,132438.203125,142369.4375,0.0
1713488369.150257,155897.53125,144498.40625,230507.828125,215349.234375,146574.703125,160053.96875,132442.046875,142360.328125,0.0
1713488369.1545644,155872.046875,144498.9375,230493.53125,215339.671875,146574.078125,160051.28125,132440.171875,142350.671875,0.0
1713488369.15461,155882.0625,144499.46875,230493.96875,215353.25,146577.921875,160051.734375,132446.515625,142361.03125,0.0
1713488369.1626952,155908.703125,144504.75,230507.203125,215371.578125,146588.203125,160060.671875,132461.1875,142378.203125,0.0
1713488369.1627073,155907.984375,144514.671875,230510.0625,215364.96875,146594.28125,160067.90625,132466.8125,142378.296875,0.0
1713488369.1627133,155875.625,144507.4375,230488.421875,215339.484375,146584.796875,160059.59375,132457.703125,142363.90625,0.0
1713488369.1652477,155877.234375,144505.90625,230484.9375,215348.25,146580.78125,160050.484375,132446.78125,142365.328125,0.0
1713488369.1690571,155914.15625,144518.96875,230507.828125,215376.234375,146592.40625,160058.703125,132451.890625,142379.640625,0.0
1713488369.176561,155910.046875,144520.9375,230508.09375,215368.09375,146591.515625,160060.9375,132445.53125,142367.5625,0.0
1713488369.18349,155878.484375,144515.5625,230487.53125,215341.546875,146580.421875,160048.875,132429.0,142350.75,0.0
1713488369.1835258,155867.390625,144502.515625,230469.296875,215339.578125,146567.015625,160028.125,132416.75,142351.109375,0.0
1713488369.2335036,155893.234375,144495.8125,230473.671875,215353.171875,146564.59375,160025.265625,132419.15625,142362.203125,0.0
1713488369.233527,155886.4375,144487.40625,230461.515625,215335.015625,146553.78125,160021.421875,132413.796875,142351.203125,0.0
1713488369.2596295,155841.828125,144471.3125,230428.796875,215295.40625,146535.890625,160011.5,132399.765625,142328.765625,0.0
1713488369.2596424,155831.09375,144466.75,230415.921875,215296.84375,146534.921875,160009.703125,132407.359375,142339.578125,0.0
1713488369.285797,155851.390625,144462.734375,230416.09375,215299.4375,146537.15625,160014.53125,132416.125,142354.78125,0.0
1713488369.2858102,155876.0625,144471.21875,230425.21875,215303.015625,146546.625,160030.09375,132428.375,142363.09375,0.0
1713488369.285817,155863.90625,144471.671875,230413.5,215282.71875,146544.84375,160032.953125,132422.5625,142349.0625,0.0
1713488369.2858224,155853.171875,144473.546875,230401.25,215278.609375,146543.671875,160030.359375,132422.375,142347.71875,0.0
1713488369.319699,155880.625,144483.296875,230415.203125,215307.390625,146554.9375,160038.3125,132429.984375,142361.03125,0.0
1713488369.319723,155893.5,144484.28125,230421.734375,215314.453125,146557.4375,160037.328125,132427.75,142357.8125,0.0
1713488369.3440752,155871.59375,144479.09375,230409.296875,215283.34375,146551.71875,160030.359375,132423.28125,142340.03125,0.0
1713488369.3703637,155853.0,144480.703125,230400.359375,215283.515625,146551.984375,160025.09375,132424.4375,142340.75,0.0
1713488369.3791144,155866.234375,144479.359375,230402.15625,215296.84375,146554.9375,160022.671875,132429.171875,142355.234375,0.0
1713488369.3816109,155883.84375,144481.765625,230407.875,215302.734375,146559.6875,160026.421875,132434.0,142360.859375,0.0
1713488369.3840508,155882.765625,144495.71875,230413.234375,215294.6875,146568.703125,160036.703125,132437.9375,142353.4375,0.0
1713488369.3865695,155869.09375,144503.046875,230408.234375,215287.28125,146570.046875,160035.015625,132430.421875,142343.0625,0.0
1713488369.389089,155893.953125,144511.09375,230418.0625,215307.125,146574.34375,160034.5625,132428.109375,142352.28125,0.0
1713488369.3915997,155934.53125,144524.0625,230439.796875,215332.609375,146588.46875,160047.796875,132437.765625,142365.953125,0.0
1713488369.394043,155935.4375,144533.453125,230441.84375,215325.09375,146594.453125,160059.421875,132438.65625,142355.40625,0.0
1713488369.3966537,155915.140625,144539.53125,230431.46875,215315.078125,146594.28125,160059.859375,132435.34375,142347.1875,0.0
1713488369.39912,155904.40625,144526.65625,230415.375,215303.8125,146584.0,160049.140625,132429.984375,142351.203125,0.0
1713488369.401614,155920.328125,144517.265625,230417.34375,215315.796875,146580.515625,160045.46875,132429.984375,142365.0625,0.0
1713488369.4040978,155895.5625,144501.625,230396.25,215294.6875,146562.09375,160031.4375,132415.046875,142351.828125,0.0
1713488369.4066048,155846.109375,144482.9375,230357.359375,215244.53125,146538.140625,160014.0,132395.5625,142324.46875,0.0
1713488369.4090889,155830.375,144469.703125,230337.859375,215239.4375,146528.828125,160003.546875,132392.703125,142326.796875,0.0
1713488369.4115844,155851.75,144464.78125,230343.765625,215255.71875,146533.484375,160007.921875,132403.0625,142345.484375,0.0
1713488369.4140592,155867.9375,144481.328125,230358.875,215269.75,146550.921875,160028.9375,132422.5625,142363.0,0.0
1713488369.416592,155839.765625,144482.21875,230344.21875,215240.515625,146546.8125,160030.09375,132419.421875,142347.984375,0.0
1713488369.4190693,155824.484375,144479.09375,230332.859375,215237.5625,146541.796875,160024.109375,132415.234375,142342.265625,0.0
1713488369.4215097,155850.765625,144480.609375,230343.671875,215258.75,146546.890625,160025.890625,132419.421875,142353.265625,0.0
1713488369.4265416,155868.375,144486.953125,230354.859375,215267.421875,146554.046875,160030.1875,132424.96875,142356.5625,0.0
1713488369.4289649,155856.84375,144491.703125,230350.296875,215253.484375,146556.1875,160032.15625,132426.765625,142347.359375,0.0
1713488369.4314966,155855.40625,144498.765625,230346.265625,215257.328125,146559.859375,160030.1875,132427.5625,142347.453125,0.0
1713488369.4339633,155883.390625,144504.390625,230357.625,215273.328125,146571.21875,160038.765625,132436.234375,142359.078125,0.0
1713488369.436504,155900.921875,144508.140625,230366.5625,215280.21875,146577.734375,160047.078125,132440.171875,142358.71875,0.0
1713488369.4390132,155894.9375,144516.109375,230363.078125,215261.078125,146578.453125,160051.015625,132438.203125,142342.265625,0.0
1713488369.449014,155885.359375,144519.40625,230350.734375,215249.8125,146575.953125,160047.078125,132432.75,142333.140625,0.0
1713488369.4515054,155907.984375,144520.84375,230356.375,215268.859375,146583.28125,160051.109375,132438.65625,142347.265625,0.0
1713488369.4575033,155921.65625,144517.265625,230363.796875,215280.84375,146590.25,160056.375,132445.359375,142360.140625,0.0
1713488369.457523,155902.890625,144516.640625,230355.84375,215262.953125,146594.015625,160059.0625,132440.265625,142355.671875,0.0
1713488369.4575317,155866.59375,144503.953125,230327.234375,215238.015625,146577.65625,160042.875,132420.140625,142337.796875,0.0
1713488369.4575396,155859.703125,144484.640625,230308.1875,215240.609375,146560.3125,160026.34375,132412.71875,142337.796875,0.0
1713488369.4575477,155872.21875,144476.234375,230303.09375,215239.984375,146552.4375,160026.15625,132415.5,142344.3125,0.0
1713488369.459055,155859.171875,144472.203125,230289.140625,215212.703125,146545.109375,160026.875,132409.859375,142334.578125,0.0
1713488369.461564,155844.234375,144477.125,230276.359375,215195.1875,146545.46875,160031.25,132412.09375,142332.703125,0.0
1713488369.4640067,155852.546875,144469.703125,230266.078125,215200.015625,146539.75,160022.9375,132411.109375,142338.953125,0.0
1713488369.4899704,155889.390625,144474.171875,230281.09375,215223.890625,146548.859375,160030.1875,132419.78125,142353.890625,0.0
1713488369.489983,155893.40625,144482.390625,230286.8125,215219.953125,146555.203125,160034.921875,132423.1875,142353.171875,0.0
1713488369.4899895,155868.90625,144484.09375,230274.125,215200.90625,146550.203125,160029.828125,132417.734375,142339.765625,0.0
1713488369.4899945,155863.015625,144486.515625,230268.9375,215210.109375,146547.703125,160023.828125,132414.953125,142343.34375,0.0
1713488369.4899995,155888.140625,144484.09375,230277.875,215225.046875,146550.65625,160026.703125,132419.34375,142353.796875,0.0
1713488369.4900045,155894.390625,144485.078125,230278.5,215219.59375,146554.40625,160033.21875,132424.890625,142352.984375,0.0
1713488369.4900095,155879.546875,144491.609375,230268.9375,215198.9375,146555.5625,160037.25,132426.84375,142339.21875,0.0
1713488369.4900155,155867.03125,144487.765625,230251.671875,215192.0625,146548.859375,160030.265625,132424.609375,142333.046875,0.0
1713488369.4900203,155894.75,144491.78125,230260.703125,215207.171875,146555.390625,160037.96875,132434.984375,142345.125,0.0
1713488369.490025,155914.0625,144503.5,230272.953125,215213.15625,146568.359375,160052.171875,132443.921875,142355.3125,0.0
1713488369.4900303,155904.140625,144515.484375,230273.046875,215202.6875,146577.921875,160061.921875,132447.59375,142353.625,0.0
1713488369.4900353,155900.296875,144527.109375,230275.109375,215211.1875,146587.03125,160062.8125,132451.171875,142363.546875,0.0
1713488369.49004,155930.15625,144530.671875,230286.546875,215234.25,146594.734375,160064.34375,132451.34375,142378.296875,0.0
1713488369.4900453,155939.28125,144524.234375,230284.765625,215232.375,146592.671875,160059.78125,132446.25,142377.40625,0.0
1713488369.4900503,155913.078125,144517.984375,230269.734375,215205.375,146584.265625,160051.734375,132436.6875,142359.78125,0.0
1713488369.490055,155869.546875,144501.078125,230240.859375,215182.75,146565.21875,160032.78125,132419.609375,142341.8125,0.0
1713488369.4900603,155880.171875,144498.3125,230240.953125,215193.9375,146564.6875,160033.21875,132420.140625,142350.484375,0.0
1713488369.490065,155891.265625,144492.328125,230237.828125,215191.515625,146562.0,160036.53125,132422.640625,142353.53125,0.0
1713488369.4900703,155867.296875,144486.421875,230220.65625,215164.875,146552.4375,160037.15625,132418.0,142337.171875,0.0
1713488369.4900756,155842.890625,144488.125,230205.984375,215150.390625,146548.140625,160037.421875,132415.5,142328.21875,0.0
1713488369.4915545,155848.0,144485.96875,230204.46875,215162.28125,146550.65625,160038.3125,132423.8125,142339.484375,0.0
1713488369.4946225,155862.390625,144483.109375,230211.359375,215174.359375,146555.75,160043.234375,132430.78125,142350.21875,0.0
1713488369.4946344,155857.203125,144490.0,230213.5,215171.578125,146562.546875,160050.84375,132437.125,142351.921875,0.0
1713488369.496561,155835.296875,144493.125,230201.609375,215154.140625,146561.640625,160048.875,132438.828125,142345.125,0.0
1713488369.4990835,155844.6875,144495.09375,230203.21875,215167.640625,146563.875,160043.5,132438.65625,142349.953125,0.0
1713488369.5015745,155863.375,144490.4375,230211.359375,215181.78125,146568.359375,160044.578125,132441.78125,142357.46875,0.0
1713488369.504007,155851.125,144489.109375,230205.015625,215165.953125,146568.078125,160045.375,132436.953125,142349.859375,0.0
1713488369.5065567,155841.203125,144501.265625,230202.0625,215155.046875,146574.515625,160055.484375,132445.0,142346.28125,0.0
1713488369.5090044,155851.125,144503.859375,230200.71875,215165.140625,146576.75,160056.203125,132449.921875,142355.046875,0.0
1713488369.5116036,155877.859375,144496.53125,230205.015625,215178.109375,146574.96875,160053.25,132447.859375,142362.375,0.0
1713488369.5140164,155882.59375,144495.0,230204.296875,215173.546875,146572.828125,160048.875,132441.953125,142356.65625,0.0
1713488369.5165827,155866.5,144504.390625,230199.828125,215159.15625,146576.40625,160050.5625,132437.40625,142345.921875,0.0
1713488369.5190048,155853.71875,144506.1875,230190.609375,215157.984375,146575.0625,160042.15625,132429.53125,142345.296875,0.0
1713488369.5220811,155882.6875,144512.890625,230207.59375,215184.359375,146587.125,160044.21875,132437.578125,142365.234375,0.0
1713488369.522094,155898.328125,144523.078125,230220.5625,215198.5,146599.640625,160051.375,132443.84375,142375.4375,0.0
1713488369.5240688,155871.5,144522.28125,230202.765625,215164.875,146592.046875,160048.25,132432.65625,142355.40625,0.0
1713488369.5271077,155837.359375,144505.640625,230169.515625,215134.03125,146567.8125,160028.3125,132412.28125,142334.03125,0.0
1713488369.5271528,155852.109375,144497.6875,230168.34375,215144.9375,146561.203125,160025.796875,132410.75,142341.734375,0.0
1713488369.5339177,155860.15625,144493.84375,230167.8125,215144.765625,146559.859375,160031.875,132416.65625,142347.625,0.0
1713488369.5339303,155850.671875,144503.40625,230162.890625,215128.578125,146565.84375,160048.25,132428.546875,142347.359375,0.0
1713488369.5339456,155831.09375,144500.375,230145.734375,215117.3125,146560.3125,160047.171875,132427.46875,142342.53125,0.0
1713488369.538424,155837.265625,144488.03125,230139.65625,215126.703125,146555.75,160043.5,132428.8125,142348.34375,0.0
1713488369.5384364,155864.796875,144498.9375,230156.28125,215146.375,146570.234375,160061.65625,132448.9375,142368.375,0.0
1713488369.5484912,155860.234375,144505.109375,230153.15625,215131.890625,146571.921875,160067.640625,132448.484375,142359.875,0.0
1713488369.548519,155843.796875,144503.59375,230135.09375,215112.390625,146564.328125,160058.96875,132439.640625,142347.53125,0.0
1713488369.5535188,155865.25,144508.953125,230139.46875,215127.328125,146571.484375,160061.296875,132449.203125,142361.9375,0.0
1713488369.5535312,155893.40625,144505.546875,230148.5,215140.734375,146579.53125,160066.296875,132458.140625,142373.90625,0.0
1713488369.57085,155888.5,144505.546875,230144.390625,215126.078125,146579.96875,160066.390625,132458.59375,142366.046875,0.0
1713488369.5708697,155869.8125,144508.5,230132.765625,215110.78125,146577.03125,160062.09375,132455.453125,142352.90625,0.0
1713488369.6227012,155872.21875,144507.703125,230126.0625,215112.9375,146569.875,160053.609375,132451.4375,142347.359375,0.0
1713488369.622715,155892.78125,144505.28125,230134.828125,215128.671875,146571.84375,160054.6875,132455.640625,142354.59375,0.0
1713488369.622722,155891.171875,144504.390625,230135.265625,215124.734375,146573.453125,160054.953125,132452.6875,142351.203125,0.0
1713488369.6485136,155861.5,144499.828125,230114.53125,215095.765625,146562.90625,160043.421875,132432.390625,142333.140625,0.0
1713488369.6485314,155852.734375,144497.421875,230105.40625,215103.90625,146562.359375,160036.625,132428.640625,142339.578125,0.0
1713488369.6745048,155879.109375,144503.40625,230119.984375,215125.625,146574.15625,160043.140625,132437.578125,142359.078125,0.0
1713488369.674518,155877.3125,144505.734375,230120.703125,215118.390625,146574.96875,160042.609375,132431.671875,142353.265625,0.0
1713488369.674524,155859.609375,144515.296875,230114.4375,215098.796875,146574.078125,160043.328125,132424.171875,142336.90625,0.0
1713488369.6745296,155855.40625,144519.234375,230110.6875,215104.265625,146574.078125,160039.390625,132426.3125,142339.765625,0.0
1713488369.6966085,155878.390625,144518.15625,230118.546875,215123.65625,146577.296875,160041.53125,132433.203125,142353.703125,0.0
1713488369.7214675,155869.546875,144509.671875,230107.828125,215110.15625,146569.78125,160038.40625,132426.578125,142351.03125,0.0
1713488369.7315044,155843.34375,144507.078125,230093.703125,215088.078125,146567.90625,160040.375,132425.15625,142345.578125,0.0
1713488369.734032,155818.21875,144501.703125,230077.515625,215080.390625,146566.5625,160038.859375,132430.15625,142352.984375,0.0
1713488369.7390387,155831.09375,144495.625,230079.390625,215093.171875,146569.421875,160044.046875,132443.296875,142373.734375,0.0
1713488369.7414746,155851.125,144497.859375,230086.90625,215101.125,146575.859375,160054.953125,132452.0625,142383.5625,0.0
1713488369.7440038,155841.375,144501.359375,230080.828125,215088.34375,146575.421875,160057.984375,132447.765625,142371.40625,0.0
1713488369.7465255,155826.796875,144500.90625,230064.375,215070.1875,146570.3125,160051.734375,132442.9375,142361.671875,0.0
1713488369.7489607,155856.125,144505.28125,230074.03125,215089.78125,146578.640625,160057.09375,132455.109375,142374.359375,0.0
1713488369.7515564,155889.390625,144518.078125,230090.65625,215103.546875,146587.75,160068.890625,132463.859375,142379.375,0.0
1713488369.7540483,155888.9375,144525.578125,230091.90625,215099.875,146592.765625,160076.234375,132464.671875,142367.390625,0.0
1713488369.76026,155869.890625,144523.890625,230076.53125,215085.484375,146590.25,160076.40625,132464.046875,142358.625,0.0
1713488369.7627976,155873.296875,144511.359375,230063.203125,215082.265625,146575.765625,160062.015625,132446.96875,142346.46875,0.0
1713488369.765249,155899.765625,144511.09375,230068.578125,215085.578125,146574.703125,160064.515625,132445.796875,142343.421875,0.0
1713488369.767706,155889.03125,144507.875,230058.921875,215066.796875,146571.484375,160060.140625,132440.890625,142334.03125,0.0
1713488369.7702007,155865.78125,144507.25,230045.421875,215054.734375,146567.640625,160053.515625,132435.796875,142329.75,0.0
1713488369.772708,155865.6875,144505.640625,230040.59375,215064.296875,146567.546875,160045.734375,132434.546875,142345.296875,0.0
1713488369.7751968,155882.0625,144499.390625,230044.34375,215074.21875,146570.953125,160046.015625,132439.453125,142366.84375,0.0
1713488369.777665,155868.734375,144496.34375,230037.28125,215060.265625,146569.96875,160049.234375,132440.0,142366.3125,0.0
1713488369.7802815,155837.265625,144497.421875,230023.25,215036.3125,146568.53125,160048.0625,132439.015625,142355.234375,0.0
1713488369.7827845,155830.296875,144492.046875,230011.171875,215033.8125,146559.140625,160034.5625,132426.578125,142350.40625,0.0
1713488369.7852468,155859.609375,144491.609375,230020.375,215050.703125,146559.140625,160032.328125,132426.578125,142357.46875,0.0
1713488369.7877452,155875.171875,144499.5625,230029.6875,215057.140625,146565.9375,160036.4375,132428.546875,142357.90625,0.0
1713488369.7901783,155877.140625,144513.515625,230029.234375,215047.9375,146574.34375,160046.8125,132434.625,142353.96875,0.0
1713488369.792693,155881.4375,144516.90625,230021.90625,215046.5,146575.5,160051.109375,132440.890625,142357.46875,0.0
1713488369.7952013,155911.109375,144512.171875,230026.46875,215058.03125,146577.03125,160054.859375,132447.5,142368.28125,0.0
1713488369.7977047,155928.90625,144511.71875,230028.78125,215056.0625,146579.796875,160060.9375,132451.609375,142370.25,0.0
1713488369.8002024,155907.625,144510.828125,230014.484375,215032.109375,146577.375,160062.546875,132448.3125,142355.859375,0.0
1713488369.8027124,155875.53125,144498.84375,229988.28125,215010.921875,146566.75,160052.71875,132444.1875,142344.671875,0.0
1713488369.8052032,155891.4375,144495.359375,229990.96875,215023.4375,146569.96875,160054.328125,132451.53125,142354.953125,0.0
1713488369.8076699,155916.75,144500.1875,230001.78125,215035.859375,146572.28125,160056.109375,132451.171875,142354.328125,0.0
1713488369.8101907,155905.578125,144505.828125,229996.515625,215022.265625,146567.734375,160054.859375,132444.28125,142338.0625,0.0
1713488369.8176107,155881.25,144506.453125,229983.90625,215017.09375,146561.5625,160047.171875,132435.34375,142331.171875,0.0
1713488369.8176208,155896.1875,144500.640625,229985.328125,215031.5625,146563.171875,160046.453125,132438.390625,142346.203125,0.0
1713488369.8176267,155914.0625,144497.59375,229990.703125,215043.546875,146566.03125,160047.625,132437.484375,142355.40625,0.0
1713488369.8176324,155895.46875,144493.65625,229979.34375,215023.609375,146562.09375,160045.46875,132431.671875,142342.0,0.0
1713488369.8176374,155878.03125,144503.671875,229970.9375,215006.53125,146565.765625,160049.5,132434.8125,142337.609375,0.0
1713488369.8176425,155887.0625,144507.25,229974.96875,215021.921875,146571.75,160050.84375,132441.0625,142351.203125,0.0
1713488369.817655,155897.171875,144499.921875,229975.59375,215029.609375,146566.75,160044.40625,132437.765625,142356.5625,0.0
1713488369.8176608,155884.203125,144501.171875,229966.296875,215012.703125,146558.96875,160035.015625,132423.546875,142342.0,0.0
1713488369.8207731,155856.671875,144500.453125,229948.859375,214991.25,146548.140625,160022.3125,132406.46875,142319.546875,0.0
1713488369.8207831,155867.21875,144509.046875,229957.34375,215008.953125,146558.25,160026.078125,132417.46875,142332.15625,0.0
1713488369.8238575,155894.65625,144513.421875,229972.015625,215027.8125,146567.09375,160036.078125,132426.046875,142347.359375,0.0
1713488369.8238745,155890.46875,144511.546875,229966.734375,215016.015625,146564.15625,160037.421875,132420.953125,142341.546875,0.0
1713488369.8238797,155855.6875,144506.265625,229944.296875,214986.234375,146554.859375,160033.140625,132413.4375,142330.1875,0.0
1713488369.827036,155853.171875,144508.140625,229938.484375,214993.484375,146556.1875,160035.8125,132420.5,142340.75,0.0
1713488369.8270433,155878.65625,144509.125,229948.328125,215015.03125,146565.046875,160047.796875,132434.0,142358.0,0.0
1713488369.8338656,155876.6875,144505.90625,229944.828125,215004.84375,146567.09375,160052.71875,132438.65625,142357.640625,0.0
1713488369.8338852,155848.796875,144498.3125,229928.46875,214979.09375,146562.265625,160048.59375,132434.890625,142341.09375,0.0
1713488369.8338907,155841.015625,144502.34375,229923.46875,214982.84375,146562.90625,160046.015625,132436.59375,142340.75,0.0
1713488369.8338957,155864.0,144503.5,229933.125,215003.3125,146568.703125,160050.484375,132443.390625,142350.75,0.0
1713488369.8339012,155872.40625,144504.75,229937.234375,215008.40625,146571.03125,160055.578125,132445.71875,142347.359375,0.0
1713488369.8339062,155852.28125,144508.59375,229925.703125,214979.171875,146567.734375,160059.15625,132443.84375,142326.4375,0.0
1713488369.8339112,155830.203125,144501.890625,229905.859375,214963.984375,146556.1875,160047.703125,132430.34375,142308.46875,0.0
1713488369.8339162,155853.265625,144499.390625,229912.015625,214989.8125,146560.21875,160048.25,132435.96875,142323.046875,0.0
1713488369.8364456,155857.921875,144494.203125,229912.203125,214996.171875,146564.859375,160052.625,132447.40625,142343.96875,0.0
1713488369.8389287,155835.5625,144490.890625,229897.453125,214962.8125,146558.875,160047.96875,132438.296875,142338.859375,0.0
1713488369.8414493,155817.859375,144488.921875,229881.171875,214946.0,146550.203125,160035.453125,132421.9375,142334.84375,0.0
1713488369.8439295,155834.21875,144485.796875,229881.171875,214960.84375,146551.28125,160034.296875,132427.5625,142351.65625,0.0
1713488369.846481,155854.96875,144485.4375,229886.546875,214970.6875,146555.75,160037.328125,132435.515625,142361.9375,0.0
1713488369.8489392,155845.21875,144488.484375,229880.90625,214956.46875,146557.09375,160039.75,132435.703125,142350.484375,0.0
1713488369.851424,155829.84375,144495.09375,229872.953125,214948.328125,146556.546875,160036.796875,132427.390625,142337.4375,0.0
1713488369.862681,155841.203125,144498.40625,229875.1875,214960.40625,146557.625,160035.71875,132426.765625,142338.0625,0.0
1713488369.8626933,155864.796875,144499.921875,229884.21875,214971.84375,146561.109375,160038.765625,132429.984375,142341.09375,0.0
1713488369.8626995,155860.515625,144503.3125,229882.78125,214960.84375,146561.109375,160041.984375,132427.921875,142332.078125,0.0
1713488369.8658392,155832.609375,144498.484375,229862.9375,214932.59375,146548.6875,160030.546875,132409.78125,142309.8125,0.0
1713488369.8658516,155835.75,144494.015625,229857.84375,214937.96875,146547.34375,160025.71875,132412.09375,142315.625,0.0
1713488369.8677669,155868.109375,144495.8125,229870.71875,214957.8125,146557.09375,160037.0625,132426.765625,142331.265625,0.0
1713488369.87394,155868.109375,144495.90625,229870.359375,214953.515625,146562.09375,160042.703125,132431.40625,142329.296875,0.0
1713488369.8833835,155852.546875,144503.5,229866.875,214942.796875,146570.140625,160049.9375,132437.3125,142324.65625,0.0
1713488369.8833961,155850.9375,144505.46875,229864.640625,214954.765625,146573.453125,160049.671875,132443.5625,142333.234375,0.0
1713488369.8858347,155874.1875,144505.90625,229873.84375,214973.015625,146580.515625,160057.8125,132455.90625,142354.328125,0.0
1713488369.885847,155885.09375,144514.40625,229879.75,214976.671875,146588.640625,160068.625,132462.34375,142366.9375,0.0
1713488369.8952613,155869.8125,144524.421875,229876.796875,214964.25,146593.125,160072.390625,132460.640625,142363.71875,0.0
1713488369.9021335,155863.109375,144527.546875,229872.234375,214973.640625,146593.5625,160066.84375,132454.75,142365.953125,0.0
1713488369.902146,155875.171875,144520.125,229865.796875,214973.09375,146587.9375,160064.96875,132450.453125,142363.8125,0.0
1713488369.90406,155877.140625,144517.0,229860.875,214961.296875,146584.890625,160065.59375,132448.75,142359.421875,0.0
1713488369.9077904,155856.125,144516.8125,229851.84375,214944.484375,146585.96875,160066.03125,132452.78125,142359.421875,0.0
1713488369.9234107,155827.515625,144507.34375,229828.15625,214923.125,146574.609375,160053.15625,132447.328125,142358.53125,0.0
1713488369.9234607,155833.953125,144494.375,229819.65625,214927.046875,146563.34375,160039.921875,132435.609375,142361.578125,0.0
1713488369.9252229,155852.109375,144493.578125,229823.59375,214932.859375,146563.875,160041.53125,132439.1875,142364.4375,0.0
1713488369.9278457,155847.28125,144499.125,229818.6875,214914.0,146564.515625,160046.640625,132439.71875,142352.28125,0.0
1713488369.9303284,155831.546875,144497.953125,229802.5,214898.4375,146557.359375,160039.296875,132434.453125,142340.75,0.0
1713488369.955926,155847.8125,144495.90625,229802.046875,214911.59375,146557.796875,160039.578125,132437.84375,142346.828125,0.0
1713488369.9559395,155865.34375,144493.65625,229806.875,214920.796875,146560.390625,160042.875,132433.015625,142345.65625,0.0
1713488369.982125,155845.484375,144490.265625,229796.953125,214894.421875,146555.203125,160041.265625,132422.640625,142325.0,0.0
1713488369.9821436,155826.0,144494.203125,229785.421875,214876.53125,146551.640625,160037.328125,132416.921875,142310.96875,0.0
1713488370.0065434,155839.046875,144491.15625,229787.65625,214893.96875,146554.5,160033.765625,132419.96875,142321.96875,0.0
1713488370.0328212,155865.875,144491.34375,229801.875,214916.59375,146563.171875,160039.65625,132431.671875,142339.578125,0.0
1713488370.0577302,155860.59375,144495.625,229802.40625,214910.0625,146568.4375,160045.03125,132436.234375,142339.3125,0.0
1713488370.0665247,155829.3125,144488.125,229781.3125,214886.46875,146559.5,160037.15625,132429.984375,142324.828125,0.0
1713488370.0689735,155828.234375,144486.421875,229778.265625,214898.0,146562.90625,160036.359375,132437.3125,142336.0,0.0
1713488370.071578,155869.09375,144498.578125,229800.0,214924.734375,146579.96875,160048.6875,132450.28125,142354.59375,0.0
1713488370.0740182,155886.96875,144512.53125,229813.765625,214934.296875,146592.84375,160060.046875,132455.015625,142354.421875,0.0
1713488370.0764985,155867.125,144517.71875,229805.53125,214922.3125,146592.578125,160059.6875,132450.1875,142336.453125,0.0
1713488370.0790267,155856.3125,144512.34375,229791.328125,214911.9375,146585.78125,160052.890625,132448.21875,142336.984375,0.0
1713488370.0815153,155884.921875,144510.03125,229797.671875,214921.6875,146585.25,160055.21875,132446.609375,142356.484375,0.0
1713488370.0840132,155888.765625,144503.59375,229793.5625,214914.625,146579.078125,160052.71875,132444.640625,142360.328125,0.0
1713488370.0865111,155859.34375,144493.578125,229768.875,214883.953125,146567.015625,160045.921875,132435.171875,142345.296875,0.0
1713488370.0890179,155835.46875,144484.640625,229744.46875,214870.734375,146556.46875,160036.078125,132427.03125,142342.625,0.0
1713488370.0915523,155852.828125,144479.984375,229747.25,214881.71875,146556.015625,160037.6875,132429.890625,142351.921875,0.0
1713488370.093952,155855.140625,144478.46875,229744.921875,214874.921875,146557.625,160041.1875,132433.5625,142350.578125,0.0
1713488370.0964408,155836.90625,144483.5625,229736.96875,214858.203125,146559.140625,160043.765625,132431.40625,142335.921875,0.0
1713488370.0989454,155821.96875,144486.515625,229726.5,214855.171875,146556.109375,160039.75,132427.03125,142326.890625,0.0
1713488370.1014776,155842.0,144489.8125,229736.34375,214875.640625,146562.1875,160044.40625,132435.25,142335.828125,0.0
1713488370.1065063,155845.21875,144481.5,229733.828125,214872.609375,146558.96875,160042.34375,132429.078125,142328.859375,0.0
1713488370.1090162,155829.3125,144483.46875,229725.78125,214854.1875,146560.03125,160043.859375,132425.15625,142315.625,0.0
1713488370.111431,155815.0,144485.171875,229715.5,214846.9375,146560.65625,160041.625,132427.03125,142315.796875,0.0
1713488370.1139965,155833.515625,144481.234375,229719.96875,214864.296875,146563.4375,160036.890625,132430.15625,142332.78125,0.0
1713488370.1165066,155849.421875,144477.21875,229727.484375,214874.390625,146567.640625,160036.4375,132436.6875,142348.96875,0.0
1713488370.1215336,155843.25,144480.25,229726.765625,214864.921875,146572.375,160040.90625,132444.28125,142355.5,0.0
1713488370.1239724,155829.03125,144488.03125,229717.734375,214853.375,146573.1875,160042.796875,132447.0625,142356.75,0.0
1713488370.1265256,155841.640625,144495.265625,229719.890625,214868.3125,146576.40625,160044.21875,132452.59375,142366.21875,0.0
1713488370.128991,155867.75,144500.453125,229734.90625,214888.78125,146589.546875,160058.25,132466.546875,142373.90625,0.0
1713488370.1315389,155857.46875,144501.359375,229732.40625,214877.34375,146590.53125,160060.9375,132455.8125,142350.484375,0.0
1713488370.134,155824.5625,144499.203125,229711.484375,214849.625,146580.421875,160052.0,132441.15625,142331.265625,0.0
1713488370.136529,155824.390625,144499.203125,229704.0625,214851.140625,146576.84375,160049.671875,132442.3125,142343.6875,0.0
1713488370.138942,155859.4375,144508.6875,229719.078125,214871.171875,146584.171875,160063.796875,132450.984375,142362.734375,0.0
1713488370.14143,155855.234375,144504.390625,229708.796875,214852.671875,146575.6875,160063.984375,132442.859375,142354.25,0.0
1713488370.1586103,155833.59375,144501.265625,229687.25,214820.921875,146566.46875,160059.59375,132434.0,142341.09375,0.0
1713488370.158624,155834.3125,144498.3125,229676.078125,214822.984375,146560.65625,160053.25,132431.671875,142342.984375,0.0
1713488370.15863,155865.6875,144495.1875,229683.671875,214839.875,146562.265625,160056.46875,132438.03125,142352.28125,0.0
1713488370.1586356,155874.640625,144500.375,229690.109375,214840.6875,146566.5625,160060.40625,132443.484375,142351.921875,0.0
1713488370.1586409,155857.5625,144500.90625,229680.015625,214819.671875,146562.8125,160053.515625,132435.796875,142332.515625,0.0
1713488370.1586456,155850.140625,144493.84375,229665.609375,214815.296875,146553.0625,160038.3125,132422.921875,142319.28125,0.0
1713488370.158651,155880.53125,144495.625,229678.671875,214841.578125,146559.140625,160036.53125,132424.796875,142327.953125,0.0
1713488370.1586561,155899.484375,144497.6875,229682.875,214836.9375,146562.71875,160037.875,132425.515625,142321.703125,0.0
1713488370.1586611,155904.234375,144517.453125,229691.28125,214831.65625,146579.265625,160052.984375,132438.828125,142320.984375,0.0
1713488370.1586661,155895.203125,144522.984375,229685.375,214832.90625,146583.28125,160051.375,132439.453125,142327.953125,0.0
1713488370.1586716,155901.90625,144510.203125,229681.4375,214840.78125,146582.390625,160046.90625,132441.0625,142348.171875,0.0
1713488370.158677,155899.046875,144502.34375,229678.9375,214841.046875,146580.328125,160047.34375,132444.640625,142361.671875,0.0
1713488370.158682,155872.765625,144502.6875,229667.140625,214822.09375,146577.828125,160052.0,132444.46875,142353.703125,0.0
1713488370.1586869,155845.125,144504.390625,229653.90625,214813.59375,146578.984375,160053.96875,132446.875,142347.984375,0.0
1713488370.158693,155852.546875,144505.203125,229658.828125,214833.71875,146585.78125,160058.875,132456.0,142360.234375,0.0
1713488370.160256,155867.9375,144508.140625,229666.953125,214839.34375,146588.640625,160064.0625,132456.09375,142360.859375,0.0
1713488370.1633997,155851.03125,144508.859375,229657.921875,214817.078125,146583.734375,160064.34375,132449.203125,142344.5,0.0
1713488370.1634123,155829.484375,144505.46875,229639.859375,214798.578125,146573.265625,160056.015625,132440.4375,142334.9375,0.0
1713488370.1651893,155847.359375,144509.484375,229641.203125,214809.484375,146574.796875,160056.5625,132445.0,142351.203125,0.0
1713488370.172693,155867.9375,144509.21875,229646.21875,214818.6875,146575.5,160058.34375,132447.40625,142361.671875,0.0
1713488370.1751795,155855.59375,144499.828125,229634.5,214802.515625,146568.890625,160054.765625,132443.125,142351.03125,0.0
1713488370.1776607,155837.625,144500.09375,229625.828125,214791.328125,146569.609375,160055.65625,132445.984375,142345.578125,0.0
1713488370.2277968,155825.546875,144486.6875,229605.0,214779.53125,146553.15625,160038.140625,132430.0625,142332.078125,0.0
1713488370.230365,155843.875,144481.6875,229608.578125,214792.046875,146554.5,160036.703125,132427.65625,142337.53125,0.0
1713488370.2327547,155839.40625,144481.234375,229607.40625,214787.21875,146556.734375,160038.40625,132427.46875,142335.5625,0.0
1713488370.2353654,155825.8125,144490.71875,229605.09375,214774.4375,146561.5625,160041.359375,132429.0,142327.25,0.0
1713488370.2385335,155829.84375,144497.859375,229605.4375,214781.59375,146562.984375,160036.53125,132429.53125,142329.5625,0.0
1713488370.2385645,155854.96875,144495.265625,229617.421875,214804.203125,146567.90625,160036.625,132436.328125,142340.46875,0.0
1713488370.240362,155855.234375,144488.203125,229612.59375,214791.421875,146563.4375,160030.984375,132428.375,142329.75,0.0
1713488370.242849,155836.640625,144489.109375,229600.53125,214770.5,146557.71875,160026.078125,132418.265625,142309.890625,0.0
1713488370.2453446,155820.71875,144487.140625,229589.34375,214767.28125,146553.0625,160019.09375,132412.1875,142303.109375,0.0
1713488370.2478373,155848.4375,144497.859375,229608.484375,214797.6875,146570.046875,160036.796875,132430.34375,142330.1875,0.0
1713488370.25036,155857.65625,144501.4375,229614.125,214805.453125,146576.484375,160049.9375,132439.28125,142345.21875,0.0
1713488370.2528443,155840.296875,144504.578125,229603.296875,214785.796875,146575.6875,160054.953125,132441.0625,142347.625,0.0
1713488370.2553706,155815.625,144494.5625,229581.84375,214776.046875,146568.359375,160045.5625,132441.15625,142352.09375,0.0
1713488370.2578652,155841.90625,144495.359375,229590.953125,214797.234375,146575.59375,160048.25,132450.0,142370.6875,0.0
1713488370.2627976,155852.375,144487.671875,229589.0,214790.625,146570.234375,160042.34375,132446.078125,142368.015625,0.0
1713488370.2653327,155836.453125,144485.796875,229577.28125,214767.46875,146563.53125,160036.4375,132439.015625,142350.40625,0.0
1713488370.2677965,155809.8125,144478.015625,229551.0,214746.71875,146546.890625,160021.328125,132423.28125,142326.171875,0.0
1713488370.2702987,155816.34375,144470.859375,229543.21875,214749.21875,146539.296875,160017.390625,132419.875,142320.625,0.0
1713488370.2727823,155835.828125,144476.5,229554.125,214760.046875,146546.171875,160029.015625,132427.203125,142325.1875,0.0
1713488370.280148,155820.984375,144474.890625,229542.6875,214737.6875,146539.75,160028.125,132418.265625,142310.171875,0.0
1713488370.280161,155804.8125,144476.5,229529.0,214721.859375,146535.453125,160023.5625,132411.296875,142302.921875,0.0
1713488370.2801666,155813.296875,144474.078125,229525.609375,214729.015625,146534.5625,160019.640625,132410.046875,142310.703125,0.0
1713488370.2839391,155832.703125,144467.203125,229528.109375,214735.90625,146535.265625,160020.890625,132411.5625,142317.9375,0.0
1713488370.2839522,155836.640625,144470.5,229526.859375,214727.671875,146537.328125,160025.0,132411.65625,142311.6875,0.0
1713488370.2839675,155818.84375,144473.546875,229514.25,214710.6875,146534.5625,160024.28125,132409.234375,142299.703125,0.0
1713488370.2865336,155820.8125,144477.84375,229513.359375,214719.453125,146537.953125,160024.90625,132414.78125,142305.15625,0.0
1713488370.2890477,155837.625,144476.59375,229523.640625,214734.921875,146545.28125,160027.234375,132420.40625,142313.5625,0.0
1713488370.2921011,155834.671875,144482.9375,229525.78125,214730.71875,146549.84375,160032.328125,132420.140625,142306.5,0.0
1713488370.2921307,155819.03125,144491.875,229521.140625,214716.140625,146553.6875,160033.484375,132420.0625,142295.953125,0.0
1713488370.2965336,155822.59375,144496.34375,229521.671875,214725.984375,146557.09375,160029.640625,132419.078125,142302.484375,0.0
1713488370.2990348,155850.9375,144496.96875,229535.96875,214753.15625,146567.09375,160033.84375,132426.21875,142325.8125,0.0
1713488370.3015492,155853.890625,144500.453125,229541.421875,214756.828125,146578.359375,160041.8125,132437.578125,142346.46875,0.0
1713488370.3039944,155833.515625,144504.296875,229533.828125,214741.53125,146582.125,160045.296875,132441.0625,142352.546875,0.0
1713488370.3065536,155818.9375,144492.6875,229511.828125,214729.46875,146568.4375,160028.9375,132429.265625,142352.71875,0.0
1713488370.3315513,155838.515625,144482.125,229506.5625,214731.703125,146563.078125,160027.953125,132433.5625,142363.90625,0.0
1713488370.365812,155845.40625,144475.328125,229500.578125,214728.65625,146556.640625,160031.171875,132437.3125,142364.4375,0.0
1713488370.365832,155817.6875,144466.390625,229480.359375,214699.953125,146543.3125,160027.5,132429.171875,142342.359375,0.0
1713488370.3903308,155774.046875,144447.265625,229444.953125,214668.21875,146518.1875,160005.6875,132405.390625,142315.171875,0.0
1713488370.415284,155785.859375,144438.40625,229440.9375,214677.421875,146513.90625,159998.71875,132402.625,142318.390625,0.0
1713488370.440342,155805.34375,144448.6875,229455.515625,214690.75,146527.765625,160012.390625,132416.75,142330.8125,0.0
1713488370.4653203,155800.78125,144462.8125,229459.890625,214684.140625,146534.109375,160019.1875,132417.1875,142320.625,0.0
1713488370.4716005,155793.359375,144466.390625,229452.5625,214682.078125,146533.390625,160015.15625,132414.6875,142313.390625,0.0
1713488370.4741125,155801.765625,144454.40625,229444.15625,214678.328125,146525.796875,160007.203125,132410.671875,142312.9375,0.0
1713488370.4790921,155822.515625,144453.96875,229450.328125,214686.640625,146528.484375,160010.6875,132412.984375,142317.5,0.0
1713488370.4841087,155822.515625,144464.0625,229452.828125,214682.171875,146535.453125,160019.28125,132416.203125,142312.046875,0.0
1713488370.486545,155801.40625,144459.875,229436.015625,214664.46875,146530.359375,160014.09375,132411.5625,142299.609375,0.0
1713488370.4896297,155813.390625,144456.734375,229432.984375,214670.90625,146529.734375,160009.265625,132413.625,142302.65625,0.0
1713488370.4896424,155842.984375,144458.265625,229442.71875,214686.1875,146534.28125,160011.9375,132414.78125,142308.203125,0.0
1713488370.4927564,155847.28125,144461.203125,229441.921875,214675.90625,146536.875,160013.734375,132413.078125,142301.9375,0.0
1713488370.492802,155830.203125,144463.53125,229429.765625,214656.59375,146532.328125,160009.53125,132405.75,142286.390625,0.0
1713488370.4928267,155839.046875,144468.625,229428.859375,214663.390625,146531.25,160006.046875,132400.5625,142278.34375,0.0
1713488370.49648,155879.828125,144481.234375,229450.765625,214689.046875,146542.6875,160019.546875,132409.59375,142283.171875,0.0
1713488370.496492,155890.28125,144491.078125,229458.90625,214689.859375,146553.875,160032.234375,132421.03125,142290.234375,0.0
1713488370.496498,155867.84375,144494.734375,229450.328125,214675.90625,146561.296875,160036.890625,132429.265625,142302.03125,0.0
1713488370.4996147,155852.109375,144489.015625,229438.25,214678.953125,146558.96875,160024.90625,132421.21875,142320.8125,0.0
1713488370.499627,155866.859375,144483.921875,229443.625,214695.75,146561.5625,160021.875,132423.359375,142343.78125,0.0
1713488370.5015955,155867.75,144485.890625,229446.484375,214695.75,146564.515625,160029.109375,132434.0,142353.265625,0.0
1713488370.5041137,155832.25,144474.984375,229425.46875,214665.53125,146554.5,160027.40625,132435.078125,142340.75,0.0
1713488370.5066,155805.4375,144459.6875,229399.265625,214646.859375,146537.78125,160014.625,132424.171875,142328.578125,0.0
1713488370.509081,155822.59375,144451.640625,229396.765625,214652.84375,146531.421875,160012.65625,132420.328125,142332.15625,0.0
1713488370.5114896,155834.21875,144452.984375,229400.53125,214655.25,146533.84375,160019.546875,132425.78125,142336.453125,0.0
1713488370.5140326,155821.703125,144461.75,229396.859375,214639.875,146536.25,160026.875,132427.75,142328.140625,0.0
1713488370.5165308,155798.109375,144457.28125,229380.3125,214634.0625,146531.25,160019.1875,132420.328125,142324.828125,0.0
1713488370.5190308,155821.890625,144460.40625,229388.984375,214656.953125,146538.765625,160022.046875,132425.6875,142339.84375,0.0
1713488370.521524,155837.265625,144465.328125,229396.046875,214656.953125,146545.015625,160029.46875,132430.875,142342.4375,0.0
1713488370.524028,155818.84375,144465.40625,229384.96875,214628.171875,146540.375,160026.15625,132422.203125,142320.625,0.0
1713488370.5265005,155806.78125,144470.859375,229378.0,214622.171875,146539.46875,160019.09375,132415.859375,142309.453125,0.0
1713488370.529013,155825.015625,144475.25,229385.59375,214639.515625,146543.765625,160018.03125,132418.265625,142316.875,0.0
1713488370.5314937,155846.109375,144475.78125,229396.671875,214656.59375,146551.09375,160023.390625,132423.453125,142323.9375,0.0
1713488370.5340304,155839.59375,144478.375,229393.546875,214645.25,146553.515625,160025.0,132423.1875,142315.265625,0.0
1713488370.5364904,155814.28125,144478.46875,229376.109375,214623.25,146545.109375,160017.125,132414.953125,142300.953125,0.0
1713488370.5390322,155824.65625,144479.0,229375.765625,214641.125,146542.515625,160010.875,132410.9375,142307.3125,0.0
1713488370.5440533,155849.875,144479.71875,229386.125,214652.9375,146545.90625,160013.109375,132411.65625,142314.90625,0.0
1713488370.54643,155849.25,144485.171875,229387.734375,214641.84375,146549.578125,160018.109375,132412.09375,142303.640625,0.0
1713488370.550223,155833.6875,144494.5625,229381.84375,214630.671875,146554.21875,160021.421875,132411.203125,142295.234375,0.0
1713488370.5502365,155838.96875,144496.53125,229378.34375,214640.59375,146557.171875,160020.703125,132414.0625,142305.96875,0.0
1713488370.5502427,155868.640625,144495.453125,229388.1875,214658.390625,146563.171875,160027.40625,132422.296875,142319.46875,0.0
1713488370.5533376,155867.484375,144490.625,229384.15625,214649.984375,146561.109375,160031.171875,132423.09375,142316.15625,0.0
1713488370.55335,155836.453125,144481.765625,229363.328125,214623.515625,146549.9375,160026.78125,132416.75,142304.984375,0.0
1713488370.5564425,155823.234375,144476.671875,229350.1875,214622.890625,146545.109375,160024.640625,132419.609375,142316.515625,0.0
1713488370.5564551,155832.703125,144471.21875,229349.65625,214630.9375,146546.453125,160029.828125,132430.78125,142336.1875,0.0
1713488370.5564613,155832.34375,144470.5,229349.296875,214624.953125,146548.6875,160034.75,132434.625,142340.296875,0.0
1713488370.5596044,155813.65625,144475.0625,229341.78125,214606.171875,146551.0,160039.125,132433.828125,142333.234375,0.0
1713488370.5596168,155812.140625,144472.46875,229327.84375,214597.140625,146545.375,160030.453125,132427.65625,142331.0,0.0
1713488370.561543,155849.25,144473.546875,229339.375,214621.375,146551.28125,160029.921875,132431.046875,142346.5625,0.0
1713488370.564002,155867.125,144478.203125,229352.15625,214640.953125,146560.3125,160033.84375,132435.078125,142356.484375,0.0
1713488370.5676844,155852.46875,144482.671875,229342.40625,214611.71875,146558.78125,160035.546875,132433.734375,142344.234375,0.0
1713488370.5676963,155838.6875,144490.0,229334.359375,214606.34375,146558.609375,160035.1875,132436.0625,142342.53125,0.0
1713488370.5677023,155846.296875,144486.25,229333.921875,214616.0,146557.625,160034.109375,132438.65625,142350.21875,0.0
1713488370.5714176,155853.796875,144483.734375,229335.96875,214617.53125,146559.765625,160037.78125,132442.3125,142353.078125,0.0
1713488370.57143,155834.046875,144483.65625,229327.03125,214596.34375,146554.859375,160033.671875,132430.609375,142332.34375,0.0
1713488370.5714371,155813.84375,144482.75,229312.09375,214581.234375,146548.234375,160024.109375,132417.640625,142315.984375,0.0
1713488370.578549,155826.265625,144480.875,229313.265625,214592.9375,146548.953125,160017.84375,132416.921875,142320.0,0.0
1713488370.5785651,155845.125,144479.359375,229322.46875,214605.640625,146548.859375,160012.921875,132410.21875,142317.59375,0.0
1713488370.5785728,155846.03125,144491.25,229329.625,214603.671875,146556.1875,160020.34375,132410.9375,142308.015625,0.0
1713488370.5785797,155827.78125,144493.484375,229316.84375,214588.921875,146550.65625,160017.125,132404.234375,142283.96875,0.0
1713488370.578586,155832.078125,144485.609375,229306.640625,214593.390625,146539.65625,160008.1875,132397.25,142273.0625,0.0
1713488370.5785928,155850.765625,144482.9375,229311.390625,214597.40625,146540.71875,160013.28125,132402.890625,142287.71875,0.0
1713488370.5785997,155840.65625,144483.828125,229307.0,214586.40625,146543.234375,160018.46875,132407.53125,142300.515625,0.0
1713488370.5802915,155811.421875,144479.359375,229289.65625,214570.671875,146543.234375,160019.09375,132416.296875,142312.046875,0.0
1713488370.5876813,155800.515625,144471.046875,229277.40625,214574.171875,146538.21875,160011.59375,132414.515625,142326.4375,0.0
1713488370.5908425,155809.28125,144455.125,229274.28125,214582.65625,146535.625,160010.15625,132415.578125,142341.546875,0.0
1713488370.590858,155805.34375,144456.46875,229271.515625,214576.40625,146541.359375,160020.703125,132423.8125,142347.984375,0.0
1713488370.5927317,155783.0,144460.578125,229260.0625,214563.4375,146540.640625,160024.375,132424.25,142339.3125,0.0
1713488370.5977314,155773.703125,144455.671875,229244.59375,214555.125,146529.8125,160013.375,132415.046875,142331.265625,0.0
1713488370.6026995,155803.203125,144459.15625,229255.5,214563.703125,146535.0,160018.828125,132422.734375,142342.890625,0.0
1713488370.6051984,155815.0,144464.96875,229261.765625,214565.046875,146541.4375,160023.390625,132427.921875,142344.671875,0.0
1713488370.610232,155801.140625,144470.421875,229256.671875,214551.640625,146540.90625,160021.6875,132420.953125,142328.40625,0.0
1713488370.6138878,155793.09375,144469.875,229246.5625,214547.515625,146539.203125,160014.265625,132416.390625,142323.75,0.0
1713488370.6138997,155820.640625,144475.25,229260.609375,214572.5625,146549.484375,160019.546875,132429.0,142341.1875,0.0
1713488370.6139047,155833.234375,144476.40625,229266.59375,214578.359375,146551.546875,160022.765625,132430.421875,142339.9375,0.0
1713488370.6164508,155811.25,144473.640625,229253.265625,214553.6875,146545.28125,160019.28125,132418.53125,142317.5,0.0
1713488370.6189556,155795.421875,144473.015625,229237.984375,214540.640625,146538.765625,160011.59375,132408.703125,142302.828125,0.0
1713488370.6220367,155819.203125,144474.53125,229245.046875,214557.09375,146541.4375,160014.8125,132407.8125,142305.78125,0.0
1713488370.6220443,155842.984375,144482.046875,229257.46875,214568.265625,146547.34375,160021.421875,132407.8125,142305.609375,0.0
1713488370.6239743,155833.15625,144483.5625,229251.125,214551.90625,146543.859375,160017.21875,132399.3125,142283.078125,0.0
1713488370.6340303,155811.421875,144476.140625,229231.1875,214538.3125,146535.625,160006.9375,132395.640625,142274.9375,0.0
1713488370.6371157,155817.234375,144464.15625,229225.015625,214546.359375,146531.421875,159999.25,132397.796875,142291.484375,0.0
1713488370.637128,155822.78125,144456.734375,229225.90625,214552.703125,146530.890625,159997.546875,132398.421875,142309.1875,0.0
1713488370.6427839,155808.296875,144462.453125,229222.78125,214541.703125,146534.5625,160008.453125,132407.09375,142313.828125,0.0
1713488370.6533873,155781.5625,144463.890625,229208.390625,214528.296875,146527.671875,160005.0625,132395.5625,142305.34375,0.0
1713488370.6534,155779.421875,144459.6875,229197.484375,214525.078125,146523.109375,160001.75,132400.203125,142315.265625,0.0
1713488370.6596053,155801.5,144463.0,229203.65625,214531.421875,146530.265625,160013.109375,132414.421875,142334.390625,0.0
1713488370.6596177,155797.5625,144465.40625,229200.96875,214517.03125,146533.125,160018.65625,132417.46875,142332.421875,0.0
1713488370.6658463,155777.890625,144463.4375,229189.078125,214501.46875,146530.71875,160014.09375,132413.890625,142323.046875,0.0
1713488370.6658597,155776.5625,144456.921875,229180.5,214508.1875,146527.578125,160005.234375,132412.90625,142326.796875,0.0
1713488370.694074,155797.296875,144452.265625,229189.4375,214527.3125,146533.9375,160009.53125,132420.40625,142340.46875,0.0
1713488370.7203238,155792.921875,144452.0,229189.078125,214521.59375,146537.0625,160013.828125,132421.03125,142338.953125,0.0
1713488370.7203684,155773.609375,144456.015625,229180.578125,214502.8125,146538.578125,160016.5,132422.109375,142329.390625,0.0
1713488370.7203856,155767.796875,144454.328125,229169.578125,214498.703125,146531.15625,160004.34375,132413.96875,142322.6875,0.0
1713488370.746371,155815.453125,144470.859375,229195.0625,214529.640625,146548.5,160017.671875,132429.53125,142343.34375,0.0
1713488370.7463903,155827.421875,144474.625,229200.515625,214528.75,146554.859375,160024.28125,132431.765625,142340.921875,0.0
1713488370.7463973,155806.5,144474.625,229187.828125,214505.765625,146550.203125,160020.4375,132421.578125,142321.875,0.0
1713488370.770846,155810.265625,144475.25,229181.203125,214510.328125,146548.59375,160013.375,132418.796875,142321.078125,0.0
1713488370.7708585,155834.9375,144467.203125,229184.15625,214523.015625,146548.59375,160008.640625,132418.796875,142326.34375,0.0
1713488370.7989478,155846.390625,144466.9375,229188.8125,214524.90625,146551.09375,160008.90625,132419.421875,142325.546875,0.0
1713488370.7989607,155835.75,144474.359375,229187.109375,214512.734375,146552.96875,160011.046875,132414.875,142313.65625,0.0
1713488370.7989674,155816.796875,144474.703125,229171.28125,214499.953125,146543.3125,160002.203125,132402.890625,142299.609375,0.0
1713488370.810208,155826.09375,144470.421875,229170.921875,214514.703125,146540.1875,160000.859375,132400.75,142305.515625,0.0
1713488370.8127046,155836.734375,144473.8125,229176.46875,214524.90625,146543.5,160007.46875,132404.40625,142312.140625,0.0
1713488370.8152149,155824.921875,144477.296875,229172.71875,214505.671875,146547.78125,160017.9375,132411.734375,142310.25,0.0
1713488370.8177013,155802.21875,144470.5,229153.40625,214487.0,146541.265625,160013.203125,132413.078125,142310.96875,0.0
1713488370.8201988,155808.390625,144459.234375,229146.875,214500.40625,146535.1875,160005.78125,132412.359375,142322.765625,0.0
1713488370.8227057,155808.828125,144445.65625,229138.828125,214494.140625,146529.546875,160003.546875,132410.75,142330.375,0.0
1713488370.825202,155786.921875,144439.75,229127.203125,214474.828125,146526.875,160004.34375,132412.71875,142328.765625,0.0
1713488370.82771,155767.265625,144444.484375,229117.1875,214465.0,146527.765625,160003.71875,132415.9375,142329.03125,0.0
1713488370.8302212,155781.65625,144450.65625,229118.625,214474.296875,146531.421875,160002.375,132422.296875,142340.296875,0.0
1713488370.8326795,155810.0,144455.390625,229130.96875,214489.671875,146539.203125,160007.03125,132425.0625,142350.21875,0.0
1713488370.8352196,155809.375,144460.578125,229133.375,214483.953125,146545.203125,160016.140625,132429.171875,142345.578125,0.0
1713488370.8378108,155786.125,144462.640625,229123.0,214467.5,146543.9375,160016.953125,132430.15625,142333.5,0.0
1713488370.840227,155785.765625,144459.328125,229116.484375,214473.9375,146540.546875,160009.703125,132426.578125,142333.140625,0.0
1713488370.8426924,155803.015625,144452.984375,229119.078125,214484.046875,146542.15625,160012.03125,132429.171875,142337.171875,0.0
1713488370.845206,155796.21875,144450.03125,229113.078125,214471.796875,146539.296875,160012.390625,132423.90625,142325.71875,0.0
1713488370.8477092,155775.84375,144456.109375,229103.328125,214452.578125,146538.9375,160011.5,132422.203125,142313.203125,0.0
1713488370.8501709,155774.59375,144461.390625,229097.796875,214457.671875,146540.546875,160010.25,132423.0,142317.671875,0.0
1713488370.8527305,155810.0,144466.3125,229113.34375,214483.140625,146551.28125,160017.671875,132429.265625,142334.125,0.0
1713488370.8552375,155834.21875,144477.75,229127.828125,214494.40625,146563.25,160029.109375,132436.15625,142339.765625,0.0
1713488370.8577275,155817.859375,144480.34375,229118.171875,214472.78125,146559.765625,160023.65625,132423.546875,142322.765625,0.0
1713488370.8602266,155808.296875,144480.4375,229106.28125,214462.671875,146551.8125,160013.734375,132413.96875,142313.828125,0.0
1713488370.8626883,155824.125,144480.15625,229110.125,214477.25,146554.5,160018.109375,132418.984375,142322.59375,0.0
1713488370.8652272,155826.625,144473.453125,229106.828125,214472.6875,146550.109375,160018.203125,132415.234375,142317.765625,0.0
1713488370.870272,155804.0,144468.0,229092.96875,214453.734375,146542.515625,160014.625,132408.875,142303.375,0.0
1713488370.872785,155778.4375,144461.125,229069.71875,214429.859375,146528.203125,160002.109375,132398.15625,142295.859375,0.0
1713488370.8752327,155797.296875,144459.59375,229073.109375,214444.25,146528.125,160002.109375,132403.515625,142312.84375,0.0
1713488370.8783364,155807.140625,144457.8125,229075.078125,214447.921875,146530.796875,160006.125,132411.734375,142325.359375,0.0
1713488370.8783488,155785.671875,144451.734375,229064.359375,214432.1875,146531.25,160008.015625,132412.8125,142320.09375,0.0
1713488370.8819427,155766.453125,144451.375,229050.765625,214420.65625,146527.40625,160002.640625,132409.328125,142313.921875,0.0
1713488370.8819556,155789.34375,144456.5625,229059.25,214437.8125,146530.09375,160001.84375,132412.453125,142324.828125,0.0
1713488370.8819616,155823.234375,144466.84375,229078.65625,214459.015625,146541.359375,160012.484375,132420.140625,142336.09375,0.0
1713488370.8819668,155812.3125,144466.125,229070.25,214442.5625,146540.375,160014.71875,132418.71875,142327.875,0.0
1713488370.885146,155781.65625,144459.0625,229047.28125,214417.4375,146532.328125,160008.640625,132413.4375,142316.96875,0.0
1713488370.8851583,155785.59375,144456.5625,229046.5625,214429.140625,146536.53125,160008.90625,132421.03125,142329.75,0.0
1713488370.8851647,155818.125,144457.546875,229060.421875,214450.515625,146547.78125,160018.46875,132434.0,142341.8125,0.0
1713488370.8888793,155815.265625,144457.546875,229056.484375,214441.21875,146546.890625,160018.203125,132429.0,142327.59375,0.0
1713488370.8888896,155781.46875,144455.125,229038.609375,214417.96875,146540.8125,160010.6875,132418.09375,142310.25,0.0
1713488370.8888948,155787.015625,144462.375,229038.515625,214426.90625,146546.0,160010.6875,132421.484375,142318.84375,0.0
1713488370.8920586,155825.734375,144474.796875,229057.015625,214449.890625,146560.125,160024.109375,132433.5625,142331.984375,0.0
1713488370.8920646,155826.984375,144479.09375,229056.125,214438.890625,146560.65625,160027.328125,132430.34375,142322.328125,0.0
1713488370.8945632,155801.046875,144479.8125,229043.34375,214415.5625,146554.21875,160023.203125,132415.9375,142305.96875,0.0
1713488370.8945727,155790.59375,144479.53125,229033.328125,214413.234375,146552.703125,160021.78125,132414.328125,142309.8125,0.0
1713488370.8965485,155823.234375,144484.453125,229046.390625,214435.3125,146563.703125,160032.953125,132426.84375,142331.53125,0.0
1713488370.901522,155833.515625,144482.21875,229048.53125,214438.53125,146568.984375,160041.984375,132435.34375,142337.609375,0.0
1713488370.9039874,155820.09375,144481.953125,229038.34375,214425.03125,146568.078125,160045.03125,132436.78125,142331.796875,0.0
1713488370.9064765,155797.125,144468.8125,229013.21875,214409.03125,146552.078125,160027.5,132427.203125,142326.171875,0.0
1713488370.9089837,155816.34375,144464.609375,229020.09375,214430.9375,146553.515625,160026.078125,132435.34375,142345.578125,0.0
1713488370.911456,155824.296875,144461.5625,229021.703125,214430.3125,146551.359375,160025.0,132435.796875,142350.84375,0.0
1713488370.9139848,155806.78125,144456.296875,229004.0,214392.671875,146539.46875,160017.125,132424.890625,142331.71875,0.0
1713488370.9182973,155796.9375,144462.546875,228993.90625,214387.03125,146537.859375,160016.421875,132425.234375,142330.015625,0.0
1713488370.9183056,155814.375,144457.1875,228996.765625,214402.5,146540.09375,160017.9375,132427.03125,142341.90625,0.0
1713488370.928364,155833.78125,144458.265625,229004.984375,214409.828125,146545.828125,160021.875,132429.984375,142348.078125,0.0
1713488370.9283943,155840.21875,144473.015625,229015.625,214413.234375,146560.75,160035.28125,132440.0,142349.6875,0.0
1713488370.93024,155826.625,144476.140625,229005.34375,214403.671875,146560.484375,160033.9375,132438.921875,142345.84375,0.0
1713488370.9340398,155846.5625,144476.5,229009.71875,214422.171875,146563.4375,160033.40625,132442.5,142355.3125,0.0
1713488370.9408252,155868.5625,144477.21875,229018.9375,214431.921875,146567.28125,160037.6875,132445.171875,142360.0625,0.0
1713488370.9408517,155848.625,144471.671875,229006.0625,214406.078125,146561.375,160033.40625,132436.859375,142345.03125,0.0
1713488370.9502845,155816.796875,144465.5,228982.546875,214380.953125,146549.84375,160021.0625,132425.859375,142327.78125,0.0
1713488370.9545748,155830.015625,144472.75,228985.671875,214395.078125,146552.078125,160020.4375,132429.53125,142336.90625,0.0
1713488370.9545875,155857.296875,144485.4375,229003.828125,214416.265625,146565.578125,160034.296875,132440.703125,142354.515625,0.0
1713488370.962782,155848.53125,144494.5625,229006.421875,214407.59375,146570.3125,160041.984375,132442.3125,142350.75,0.0
1713488370.9676414,155836.453125,144505.203125,229005.53125,214407.59375,146573.265625,160043.6875,132438.109375,142340.75,0.0
1713488370.9676583,155838.34375,144502.25,228997.125,214411.171875,146569.15625,160036.171875,132432.21875,142338.78125,0.0
1713488370.9676642,155864.359375,144492.953125,229000.15625,214421.640625,146568.078125,160036.0,132430.609375,142339.765625,0.0
1713488370.9714391,155856.125,144484.640625,228991.75,214406.96875,146563.96875,160032.328125,132426.140625,142327.328125,0.0
1713488371.00661,155830.375,144478.015625,228973.609375,214379.25,146558.25,160025.0,132423.0,142313.828125,0.0
1713488371.009627,155825.640625,144473.28125,228961.171875,214373.71875,146550.03125,160015.15625,132416.75,142314.453125,0.0
1713488371.009658,155866.40625,144484.640625,228983.703125,214407.328125,146566.46875,160032.328125,132433.109375,142341.546875,0.0
1713488371.011541,155887.421875,144501.4375,229001.859375,214422.0,146584.359375,160050.03125,132451.4375,142361.484375,0.0
1713488371.0140343,155874.546875,144506.265625,228997.03125,214407.859375,146585.78125,160050.390625,132452.6875,142358.453125,0.0
1713488371.0165305,155856.484375,144506.984375,228986.125,214406.078125,146579.265625,160038.59375,132444.90625,142358.359375,0.0
1713488371.01903,155876.0625,144508.953125,228993.453125,214416.71875,146584.796875,160043.234375,132452.234375,142373.28125,0.0
1713488371.021425,155887.421875,144507.96875,228997.5625,214419.40625,146588.46875,160048.25,132456.4375,142374.625,0.0
1713488371.0239823,155865.609375,144506.53125,228986.75,214398.65625,146586.859375,160047.53125,132454.5625,142360.234375,0.0
1713488371.0264256,155836.375,144499.203125,228965.375,214380.421875,146578.546875,160036.703125,132446.25,142350.40625,0.0
1713488371.0296483,155857.46875,144499.921875,228971.109375,214397.40625,146579.625,160037.96875,132448.125,142360.59375,0.0
1713488371.029663,155880.890625,144501.0,228980.046875,214409.65625,146583.46875,160043.0625,132453.140625,142366.671875,0.0
1713488371.0314634,155875.078125,144505.28125,228974.328125,214393.46875,146584.890625,160048.25,132453.5,142356.390625,0.0
1713488371.033991,155857.921875,144503.5,228960.109375,214380.78125,146579.078125,160041.8125,132445.53125,142344.59375,0.0
1713488371.0370295,155871.5,144506.265625,228963.40625,214394.546875,146582.125,160042.15625,132446.78125,142353.078125,0.0
1713488371.037045,155883.75,144502.0625,228965.734375,214400.453125,146582.125,160042.15625,132446.078125,142357.109375,0.0
1713488371.061493,155879.203125,144508.328125,228968.6875,214394.546875,146586.140625,160046.8125,132447.6875,142352.28125,0.0
1713488371.0883868,155859.265625,144512.265625,228959.84375,214380.421875,146584.796875,160046.359375,132444.546875,142343.96875,0.0
1713488371.0884082,155866.59375,144511.015625,228957.6875,214393.390625,146584.796875,160044.21875,132444.828125,142348.25,0.0
1713488371.1127489,155888.40625,144506.1875,228961.453125,214403.21875,146582.84375,160042.703125,132440.625,142346.109375,0.0
1713488371.1377277,155879.640625,144501.359375,228950.53125,214384.0,146574.34375,160038.140625,132428.8125,142324.5625,0.0
1713488371.1627407,155867.578125,144511.90625,228945.4375,214376.3125,146576.84375,160042.875,132428.8125,142313.03125,0.0
1713488371.1652308,155877.859375,144512.171875,228943.46875,214378.359375,146576.84375,160041.890625,132432.21875,142319.546875,0.0
1713488371.167736,155907.453125,144506.1875,228948.75,214390.171875,146578.359375,160043.59375,132438.65625,142337.34375,0.0
1713488371.1727793,155904.59375,144499.828125,228941.59375,214375.859375,146575.59375,160040.828125,132439.375,142340.75,0.0
1713488371.17528,155883.75,144493.125,228924.609375,214350.921875,146567.1875,160030.1875,132430.34375,142332.25,0.0
1713488371.1777003,155861.84375,144480.875,228902.890625,214341.609375,146558.96875,160019.0,132429.0,142340.03125,0.0
1713488371.1802263,155903.96875,144501.4375,228928.359375,214379.078125,146582.203125,160041.0,132454.203125,142373.828125,0.0
1713488371.2278347,155918.453125,144511.359375,228939.453125,214389.625,146593.296875,160052.453125,132464.3125,142382.234375,0.0
1713488371.230333,155895.203125,144503.046875,228919.96875,214359.59375,146579.96875,160041.984375,132446.609375,142357.90625,0.0
1713488371.2328072,155885.90625,144498.765625,228903.6875,214349.84375,146567.734375,160032.421875,132437.578125,142344.671875,0.0
1713488371.235286,155921.484375,144505.734375,228919.328125,214376.125,146580.328125,160046.1875,132456.53125,142363.09375,0.0
1713488371.2376964,155929.4375,144499.921875,228917.546875,214370.3125,146579.96875,160048.875,132457.421875,142360.765625,0.0
1713488371.2402298,155923.546875,144503.40625,228909.859375,214348.046875,146578.71875,160050.65625,132456.359375,142347.09375,0.0
1713488371.242725,155908.703125,144506.625,228899.21875,214337.234375,146572.734375,160042.875,132445.890625,142334.9375,0.0
1713488371.2452223,155920.59375,144508.765625,228905.203125,214351.1875,146573.265625,160042.796875,132439.71875,142338.421875,0.0
1713488371.2477229,155924.25,144505.46875,228905.65625,214354.140625,146572.828125,160043.59375,132438.921875,142340.296875,0.0
1713488371.25022,155913.625,144511.8125,228903.59375,214343.9375,146576.484375,160046.359375,132435.34375,142334.65625,0.0
1713488371.2527356,155892.34375,144513.421875,228890.546875,214333.21875,146573.0,160042.4375,132427.75,142328.5,0.0
1713488371.2552247,155892.515625,144508.421875,228886.25,214341.609375,146571.296875,160040.546875,132429.4375,142336.09375,0.0
1713488371.2578056,155906.46875,144502.15625,228889.828125,214357.171875,146571.390625,160041.453125,132433.203125,142343.34375,0.0
1713488371.2627556,155895.921875,144498.046875,228881.78125,214333.484375,146564.953125,160036.078125,132426.671875,142329.03125,0.0
1713488371.2653058,155880.453125,144501.171875,228873.375,214314.265625,146560.65625,160030.984375,132421.484375,142315.53125,0.0
1713488371.2683423,155881.609375,144496.609375,228866.671875,214322.484375,146555.390625,160021.15625,132417.546875,142315.4375,0.0
1713488371.2683673,155901.09375,144496.796875,228876.421875,214339.828125,146564.859375,160031.4375,132431.234375,142332.875,0.0
1713488371.270808,155893.859375,144499.46875,228877.3125,214332.40625,146571.296875,160041.359375,132439.1875,142334.84375,0.0
1713488371.2708173,155877.40625,144510.375,228873.015625,214323.5625,146577.203125,160048.328125,132447.328125,142337.171875,0.0
1713488371.2783654,155866.859375,144504.21875,228858.71875,214322.9375,146572.109375,160039.390625,132446.609375,142345.84375,0.0
1713488371.2783742,155886.609375,144500.8125,228863.015625,214338.390625,146573.71875,160040.640625,132449.5625,142362.5625,0.0
1713488371.2813659,155889.203125,144501.0,228863.453125,214333.390625,146576.484375,160046.453125,132454.5625,142366.140625,0.0
1713488371.2813745,155866.5,144497.421875,228850.84375,214308.53125,146570.953125,160042.703125,132448.484375,142354.15625,0.0
1713488371.28138,155863.640625,144497.421875,228844.328125,214308.890625,146566.46875,160032.953125,132441.515625,142355.140625,0.0
1713488371.2839968,155898.59375,144507.25,228861.125,214332.9375,146577.65625,160041.53125,132453.84375,142374.8125,0.0
1713488371.2914488,155909.59375,144516.109375,228869.625,214334.46875,146585.96875,160047.796875,132458.40625,142377.84375,0.0
1713488371.2914815,155897.96875,144520.484375,228866.578125,214322.296875,146589.09375,160046.015625,132450.8125,142363.71875,0.0
1713488371.2914972,155894.125,144517.796875,228855.859375,214322.84375,146586.140625,160040.375,132446.515625,142360.59375,0.0
1713488371.294586,155917.375,144515.484375,228855.140625,214332.140625,146583.546875,160041.359375,132448.484375,142367.921875,0.0
1713488371.294606,155922.5625,144510.921875,228852.640625,214328.65625,146581.046875,160044.21875,132449.375,142367.921875,0.0
1713488371.2965317,155907.453125,144511.09375,228844.5,214303.796875,146578.359375,160045.375,132447.5,142354.15625,0.0
1713488371.2989855,155890.734375,144512.890625,228835.03125,214295.390625,146573.453125,160038.859375,132439.28125,142345.125,0.0
1713488371.3015084,155909.328125,144510.65625,228839.9375,214313.359375,146570.953125,160031.609375,132432.84375,142346.90625,0.0
1713488371.3040435,155923.0,144509.3125,228840.390625,214311.484375,146570.140625,160033.484375,132434.265625,142343.34375,0.0
1713488371.306535,155916.75,144516.90625,228836.8125,214297.0,146575.421875,160041.890625,132435.96875,142332.421875,0.0
1713488371.311462,155899.671875,144512.53125,228822.78125,214285.46875,146573.71875,160038.9375,132433.015625,142321.078125,0.0
1713488371.3164866,155915.578125,144511.546875,228824.828125,214299.421875,146577.5625,160041.09375,132438.921875,142332.15625,0.0
1713488371.3214884,155930.78125,144506.359375,228830.46875,214307.90625,146580.421875,160046.359375,132444.28125,142340.46875,0.0
1713488371.3389564,155917.109375,144510.03125,228823.671875,214293.0625,146581.234375,160054.5,132448.046875,142334.484375,0.0
1713488371.3389795,155898.328125,144518.875,228813.125,214277.328125,146580.59375,160055.75,132451.078125,142330.375,0.0
1713488371.338985,155910.21875,144528.359375,228820.71875,214292.71875,146587.9375,160059.421875,132458.328125,142348.078125,0.0
1713488371.3389902,155943.921875,144537.203125,228839.046875,214319.53125,146599.375,160068.453125,132467.171875,142365.6875,0.0
1713488371.3389957,155948.84375,144539.265625,228839.046875,214319.171875,146605.28125,160072.828125,132472.625,142371.59375,0.0
1713488371.3390007,155916.203125,144528.359375,228814.90625,214290.75,146595.078125,160060.484375,132462.796875,142361.84375,0.0
1713488371.3390057,155911.296875,144514.3125,228798.375,214287.609375,146582.484375,160043.328125,132451.34375,142362.203125,0.0
1713488371.3390107,155946.4375,144508.59375,228804.625,214302.015625,146582.203125,160038.140625,132453.84375,142374.0,0.0
1713488371.3416016,155957.515625,144517.09375,228811.15625,214301.921875,146589.984375,160047.078125,132463.5,142379.546875,0.0
1713488371.3471909,155944.46875,144526.828125,228806.6875,214285.5625,146593.125,160052.453125,132462.609375,142369.359375,0.0
1713488371.3472507,155936.59375,144529.6875,228799.625,214286.546875,146591.6875,160048.59375,132460.28125,142365.859375,0.0
1713488371.3540587,155960.015625,144530.59375,228807.9375,214303.171875,146595.625,160052.625,132462.796875,142371.140625,0.0
1713488371.3566084,155973.4375,144539.703125,228820.265625,214317.203125,146609.296875,160064.6875,132474.234375,142378.296875,0.0
1713488371.3590064,155947.140625,144539.265625,228808.296875,214292.71875,146607.25,160063.625,132466.8125,142363.09375,0.0
1713488371.3615623,155915.40625,144521.296875,228779.328125,214270.359375,146584.625,160041.8125,132443.84375,142339.140625,0.0
1713488371.3640623,155936.0625,144520.3125,228786.5625,214288.953125,146586.40625,160043.765625,132448.390625,142346.28125,0.0
1713488371.3714082,155951.53125,144526.125,228797.828125,214299.234375,146593.75,160054.5,132455.453125,142351.65625,0.0
1713488371.3714204,155937.21875,144529.609375,228793.09375,214282.34375,146589.984375,160053.515625,132447.5,142338.859375,0.0
1713488371.3714268,155917.546875,144525.765625,228777.171875,214269.828125,146579.265625,160042.25,132439.1875,142332.421875,0.0
1713488371.3740957,155933.640625,144525.765625,228778.4375,214280.28125,146579.703125,160043.953125,132445.265625,142345.484375,0.0
1713488371.3765843,155946.4375,144526.296875,228786.03125,214291.1875,146586.5,160050.5625,132448.671875,142355.3125,0.0
1713488371.3796072,155935.25,144535.421875,228785.3125,214278.765625,146594.546875,160058.25,132449.46875,142353.265625,0.0
1713488371.3796191,155920.953125,144540.328125,228773.953125,214265.265625,146595.078125,160057.8125,132450.1875,142348.078125,0.0
1713488371.3815312,155933.015625,144538.640625,228772.625,214276.53125,146598.75,160057.71875,132458.953125,142358.890625,0.0
1713488371.3839831,155948.75,144535.140625,228778.15625,214286.0,146604.46875,160064.78125,132469.9375,142368.28125,0.0
1713488371.3866143,155942.140625,144535.0625,228774.765625,214277.15625,146605.359375,160067.203125,132471.90625,142365.421875,0.0
1713488371.3890843,155924.078125,144535.859375,228761.796875,214264.640625,146602.421875,160061.65625,132468.328125,142361.75,0.0
1713488371.392195,155922.015625,144526.5625,228750.0,214264.1875,146595.171875,160050.84375,132464.765625,142365.859375,0.0
1713488371.3922167,155943.75,144526.65625,228759.296875,214279.5625,146602.328125,160057.265625,132476.203125,142384.640625,0.0
1713488371.39409,155926.671875,144514.765625,228746.78125,214259.0,146594.640625,160049.9375,132467.0,142373.5625,0.0
1713488371.396517,155920.328125,144526.203125,228745.890625,214255.703125,146597.953125,160052.0,132467.53125,142367.65625,0.0
1713488371.399045,155907.984375,144516.8125,228731.578125,214252.296875,146587.75,160039.84375,132457.34375,142361.21875,0.0
1713488371.4020803,155940.34375,144524.421875,228747.5,214271.25,146594.546875,160045.5625,132462.34375,142368.90625,0.0
1713488371.4021251,155947.59375,144528.984375,228749.015625,214260.609375,146591.515625,160048.25,132457.34375,142358.53125,0.0
1713488371.403993,155928.90625,144537.03125,228740.96875,214246.3125,146589.71875,160053.25,132451.4375,142349.0625,0.0
1713488371.407008,155908.25,144527.375,228721.125,214237.640625,146575.765625,160043.328125,132440.625,142344.953125,0.0
1713488371.4070315,155920.765625,144519.140625,228721.296875,214246.21875,146569.6875,160039.21875,132438.921875,142347.890625,0.0
1713488371.439082,155927.46875,144526.921875,228728.71875,214247.03125,146577.296875,160050.03125,132450.8125,142355.765625,0.0
1713488371.4646525,155906.640625,144529.78125,228721.125,214230.3125,146578.71875,160051.640625,132448.9375,142346.734375,0.0
1713488371.4646842,155891.625,144526.390625,228708.875,214226.453125,146575.140625,160039.21875,132440.0,142343.421875,0.0
1713488371.489673,155918.0,144521.5625,228711.90625,214239.515625,146574.875,160031.96875,132440.078125,142349.78125,0.0
1713488371.4896896,155942.578125,144518.421875,228712.265625,214240.140625,146573.265625,160029.28125,132439.90625,142348.078125,0.0
1713488371.515298,155928.546875,144513.515625,228698.953125,214218.59375,146569.609375,160026.78125,132434.359375,142334.9375,0.0
1713488371.5372329,155910.125,144514.40625,228687.40625,214211.0,146571.21875,160026.078125,132437.125,142336.0,0.0
1713488371.5372672,155922.375,144515.921875,228691.609375,214227.265625,146578.09375,160032.953125,132446.609375,142350.3125,0.0
1713488371.5396943,155937.3125,144515.75,228696.890625,214231.109375,146584.0,160043.328125,132453.3125,142356.921875,0.0
1713488371.539728,155932.921875,144526.75,228700.921875,214220.5625,146591.15625,160055.125,132457.515625,142351.46875,0.0
1713488371.5475922,155918.53125,144529.0625,228689.5625,214207.59375,146585.609375,160049.5,132447.0625,142333.859375,0.0
1713488371.5476277,155934.1875,144528.078125,228687.234375,214216.984375,146583.90625,160045.109375,132447.40625,142336.71875,0.0
1713488371.547649,155958.953125,144532.109375,228698.953125,214235.9375,146591.78125,160052.890625,132457.421875,142348.703125,0.0
1713488371.553718,155951.078125,144528.265625,228690.8125,214223.953125,146590.25,160052.984375,132455.640625,142342.265625,0.0
1713488371.553779,155938.5625,144525.671875,228675.515625,214198.46875,146583.734375,160047.078125,132450.359375,142334.578125,0.0
1713488371.553805,155951.4375,144526.390625,228676.234375,214209.828125,146583.546875,160044.578125,132452.234375,142348.96875,0.0
1713488371.5538108,155974.234375,144523.96875,228686.078125,214228.25,146585.34375,160044.84375,132454.65625,142363.453125,0.0
1713488371.5538173,155958.40625,144516.46875,228678.390625,214214.84375,146578.09375,160037.6875,132445.625,142356.921875,0.0
1713488371.5554645,155927.203125,144508.328125,228660.5,214195.53125,146570.59375,160032.5,132440.34375,142347.265625,0.0
1713488371.55783,155919.875,144507.4375,228653.796875,214202.234375,146569.875,160032.0625,132446.078125,142355.3125,0.0
1713488371.5603387,155938.46875,144507.4375,228659.25,214215.015625,146571.03125,160035.28125,132452.15625,142364.796875,0.0
1713488371.5634117,155936.421875,144510.296875,228659.609375,214205.8125,146572.109375,160037.78125,132450.0,142357.546875,0.0
1713488371.5634437,155918.625,144514.140625,228651.203125,214186.9375,146569.421875,160035.546875,132438.828125,142338.15625,0.0
1713488371.5677674,155906.640625,144508.234375,228634.75,214177.640625,146557.796875,160023.75,132427.65625,142323.3125,0.0
1713488371.5703523,155933.90625,144510.921875,228644.3125,214192.671875,146562.09375,160030.0,132434.890625,142326.265625,0.0
1713488371.57278,155937.21875,144518.609375,228650.75,214190.875,146573.890625,160041.71875,132447.59375,142331.796875,0.0
1713488371.57536,155908.703125,144524.78125,228643.6875,214173.359375,146579.53125,160049.140625,132445.796875,142326.34375,0.0
1713488371.577777,155870.96875,144506.625,228615.359375,214156.453125,146563.34375,160030.890625,132432.65625,142318.125,0.0
1713488371.580382,155874.8125,144482.671875,228602.75,214161.546875,146551.453125,160016.859375,132429.4375,142325.09375,0.0
1713488371.582774,155889.296875,144483.375,228611.78125,214176.578125,146557.796875,160021.6875,132437.578125,142340.5625,0.0
1713488371.5853827,155864.53125,144475.6875,228594.96875,214147.875,146546.171875,160011.140625,132424.078125,142322.859375,0.0
1713488371.5903525,155850.046875,144476.3125,228579.765625,214137.234375,146538.046875,160002.109375,132417.109375,142313.390625,0.0
1713488371.5953307,155881.4375,144486.953125,228593.453125,214166.734375,146551.09375,160013.203125,132433.46875,142337.796875,0.0
1713488371.597756,155904.234375,144490.265625,228604.796875,214175.59375,146559.859375,160022.140625,132441.328125,142349.328125,0.0
1713488371.6003273,155894.484375,144499.03125,228605.25,214161.734375,146563.96875,160028.484375,132437.765625,142338.515625,0.0
1713488371.6027431,155877.40625,144503.765625,228598.546875,214156.1875,146565.40625,160028.3125,132435.515625,142334.03125,0.0
1713488371.6053095,155885.71875,144501.890625,228596.75,214161.546875,146564.6875,160025.890625,132436.15625,142343.15625,0.0
1713488371.607735,155903.328125,144502.609375,228604.796875,214169.234375,146569.25,160032.15625,132441.78125,142353.34375,0.0
1713488371.610316,155900.5625,144510.109375,228607.390625,214163.78125,146575.328125,160038.234375,132442.3125,142348.875,0.0
1713488371.6127474,155878.296875,144505.28125,228589.78125,214146.359375,146566.296875,160027.953125,132431.859375,142332.15625,0.0
1713488371.6158152,155877.5,144496.796875,228579.328125,214153.234375,146556.734375,160015.15625,132426.40625,142328.859375,0.0
1713488371.6158252,155896.625,144497.234375,228587.90625,214169.953125,146561.109375,160018.921875,132436.953125,142339.21875,0.0
1713488371.6177168,155888.140625,144493.75,228579.59375,214148.859375,146555.296875,160015.515625,132431.328125,142327.15625,0.0
1713488371.6454468,155865.609375,144486.59375,228560.8125,214123.28125,146540.28125,159999.6875,132412.28125,142305.875,0.0
1713488371.6478608,155863.546875,144476.234375,228542.9375,214115.0625,146531.0625,159989.140625,132411.375,142307.390625,0.0
1713488371.6558895,155902.171875,144472.203125,228549.8125,214130.078125,146537.59375,159996.296875,132417.8125,142320.1875,0.0
1713488371.655922,155913.265625,144473.015625,228552.859375,214130.890625,146543.140625,160002.015625,132420.0625,142322.953125,0.0
