timestamps,Fz,C3,Cz,C4,Pz,PO7,Oz,PO8,stim
1713490414.8384395,153460.203125,155087.765625,192039.765625,234760.03125,157759.328125,159248.140625,142306.046875,143095.78125,0.0
1713490414.8639104,153466.1875,155095.546875,192039.484375,234802.84375,157787.671875,159254.125,142345.390625,143110.1875,0.0
1713490414.863923,153473.609375,155111.8125,192032.15625,234830.03125,157825.859375,159264.6875,142420.046875,143116.078125,0.0
1713490414.8639295,153472.359375,155102.875,192027.25,234783.890625,157795.71875,159257.171875,142388.3125,143105.796875,0.0
1713490414.8889525,153476.109375,155091.515625,192040.125,234752.96875,157764.875,159258.6875,142323.3125,143113.578125,0.0
1713490414.888965,153485.5,155102.875,192048.796875,234793.828125,157791.515625,159270.3125,142352.1875,143135.21875,0.0
1713490414.888972,153473.4375,155097.515625,192024.375,234816.078125,157823.4375,159261.375,142428.09375,143134.59375,0.0
1713490414.9003572,153458.6875,155077.578125,192005.15625,234768.34375,157795.359375,159244.296875,142407.984375,143124.9375,0.0
1713490414.902876,153450.8125,155049.140625,191997.203125,234703.4375,157736.265625,159222.296875,142305.421875,143091.5,0.0
1713490414.9052556,153447.328125,155033.140625,191987.90625,234717.203125,157729.734375,159210.859375,142291.75,143090.59375,0.0
1713490414.9078653,153458.859375,155056.46875,191988.890625,234767.796875,157785.984375,159223.375,142384.90625,143112.140625,0.0
1713490414.910288,153449.5625,155054.234375,191982.8125,234749.125,157779.453125,159216.484375,142392.328125,143106.875,0.0
1713490414.9128757,153439.015625,155043.59375,191985.484375,234687.875,157736.359375,159211.390625,142314.640625,143096.953125,0.0
1713490414.9152808,153443.03125,155038.765625,191989.78125,234701.828125,157729.46875,159215.15625,142293.53125,143103.296875,0.0
1713490414.9178627,153453.140625,155058.34375,191984.15625,234755.375,157778.5625,159225.078125,142375.796875,143115.015625,0.0
1713490414.9202092,153438.109375,155054.953125,191963.859375,234734.546875,157774.53125,159217.828125,142396.796875,143099.71875,0.0
1713490414.9227853,153427.75,155048.6875,191961.078125,234668.203125,157731.890625,159216.84375,142323.40625,143081.5625,0.0
1713490414.9251995,153429.890625,155038.0625,191962.875,234662.484375,157711.765625,159215.953125,142280.84375,143078.0,0.0
1713490414.927732,153442.5,155059.609375,191964.75,234714.421875,157759.609375,159227.84375,142357.1875,143089.53125,0.0
1713490414.930166,153441.515625,155072.46875,191961.34375,234722.296875,157783.125,159234.8125,142406.71875,143090.421875,0.0
1713490414.9327528,153429.171875,155062.1875,191958.9375,234662.03125,157741.984375,159227.578125,142333.953125,143074.328125,0.0
1713490414.9351645,153427.125,155045.828125,191963.046875,234644.6875,157712.3125,159220.328125,142269.3125,143072.453125,0.0
1713490414.9377434,153432.21875,155050.578125,191959.390625,234692.34375,157748.875,159222.125,142323.671875,143088.1875,0.0
1713490414.940176,153428.546875,155053.078125,191945.4375,234705.484375,157771.40625,159217.390625,142385.171875,143089.96875,0.0
1713490414.9427555,153435.53125,155051.5625,191953.03125,234664.1875,157747.984375,159218.375,142351.828125,143091.671875,0.0
1713490414.9451392,153432.3125,155033.3125,191955.0,234635.390625,157712.84375,159209.6875,142289.0625,143090.59375,0.0
1713490414.947715,153409.421875,155011.40625,191927.640625,234645.5,157713.5625,159190.734375,142298.71875,143074.953125,0.0
1713490414.950736,153417.375,155033.859375,191925.140625,234679.734375,157755.765625,159205.046875,142373.640625,143082.90625,0.0
1713490414.9507487,153414.421875,155025.984375,191919.328125,234627.078125,157727.0625,159200.046875,142346.828125,143074.15625,0.0
1713490414.953824,153410.125,155006.046875,191922.546875,234584.078125,157685.21875,159190.828125,142267.78125,143067.796875,0.0
1713490414.953833,153426.9375,155019.8125,191940.15625,234638.4375,157721.34375,159213.625,142307.03125,143099.890625,0.0
1713490414.9538393,153436.953125,155047.890625,191942.125,234687.609375,157779.625,159237.40625,142404.671875,143121.71875,0.0
1713490414.958186,153420.859375,155042.171875,191924.6875,234643.53125,157754.953125,159228.734375,142386.25,143104.90625,0.0
1713490414.9581976,153405.484375,155019.015625,191914.59375,234575.484375,157698.890625,159207.734375,142292.828125,143082.375,0.0
1713490414.9582047,153410.125,155016.953125,191915.390625,234594.890625,157700.0625,159203.96875,142283.078125,143084.703125,0.0
1713490414.95821,153406.203125,155026.703125,191899.5625,234631.453125,157737.25,159199.953125,142354.78125,143083.453125,0.0
1713490414.9601748,153395.5625,155025.625,191889.375,234607.9375,157726.609375,159194.765625,142358.625,143072.0,0.0
1713490414.9632287,153394.046875,155019.28125,191897.15625,234553.5,157689.234375,159193.25,142284.6875,143062.96875,0.0
1713490414.963241,153396.71875,155016.234375,191902.34375,234565.390625,157682.0,159192.53125,142258.671875,143066.546875,0.0
1713490414.9651825,153409.953125,155042.171875,191906.1875,234621.171875,157737.875,159208.71875,142342.0,143082.375,0.0
1713490414.9677536,153420.140625,155058.078125,191911.734375,234626.546875,157756.75,159222.296875,142386.875,143090.421875,0.0
1713490414.9989657,153415.5,155046.375,191914.046875,234567.71875,157716.421875,159217.5625,142319.375,143079.421875,0.0
1713490415.001434,153412.1875,155026.078125,191909.859375,234551.796875,157689.59375,159204.515625,142265.46875,143070.296875,0.0
1713490415.0045152,153421.9375,155038.6875,191906.546875,234608.484375,157734.65625,159209.78125,142334.84375,143083.890625,0.0
1713490415.0045257,153418.8125,155049.59375,191904.046875,234629.21875,157759.25,159216.046875,142385.359375,143097.390625,0.0
1713490415.00643,153409.421875,155036.453125,191900.28125,234551.171875,157714.1875,159210.859375,142321.703125,143067.359375,0.0
1713490415.008912,153400.203125,155010.96875,191893.40625,234518.890625,157676.359375,159196.734375,142258.21875,143062.171875,0.0
1713490415.0114107,153402.984375,155009.09375,191886.0625,234569.328125,157714.984375,159201.015625,142319.46875,143082.28125,0.0
1713490415.0139365,153408.609375,155020.890625,191881.0625,234592.75,157746.453125,159205.40625,142378.46875,143087.03125,0.0
1713490415.0164323,153396.71875,155002.296875,191871.5,234527.125,157702.03125,159187.4375,142317.9375,143063.859375,0.0
1713490415.0189364,153407.1875,154991.5625,191883.828125,234507.71875,157675.109375,159188.78125,142257.859375,143072.71875,0.0
1713490415.0214343,153424.078125,155008.1875,191892.328125,234564.046875,157713.734375,159204.6875,142308.828125,143094.53125,0.0
1713490415.0238972,153400.03125,155010.34375,191867.03125,234568.421875,157740.109375,159199.328125,142379.640625,143091.578125,0.0
1713490415.0269587,153384.03125,154996.390625,191859.6875,234533.203125,157715.53125,159189.578125,142351.296875,143095.703125,0.0
1713490415.0269709,153410.21875,154996.21875,191871.765625,234496.1875,157679.3125,159195.921875,142276.28125,143084.34375,0.0
1713490415.0288877,153405.9375,154997.203125,191864.515625,234529.796875,157690.671875,159201.203125,142287.453125,143090.78125,0.0
1713490415.0320103,153389.5625,155016.328125,191850.3125,234571.640625,157738.859375,159214.515625,142378.828125,143108.75,0.0
1713490415.0320208,153364.53125,155006.5,191837.078125,234531.6875,157715.796875,159202.09375,142363.0,143093.734375,0.0
1713490415.0339365,153376.609375,154998.359375,191861.125,234523.984375,157686.375,159199.234375,142289.328125,143104.09375,0.0
1713490415.0419776,153370.171875,154975.46875,191831.796875,234466.765625,157654.8125,159175.1875,142254.203125,143059.578125,0.0
1713490415.041996,153357.5625,154982.265625,191810.25,234481.703125,157687.453125,159175.984375,142328.578125,143048.9375,0.0
1713490415.0439217,153338.421875,154972.78125,191793.984375,234459.890625,157675.921875,159164.1875,142329.75,143044.734375,0.0
1713490415.0501409,153348.53125,154973.59375,191816.78125,234443.796875,157646.0625,159166.25,142255.984375,143038.65625,0.0
1713490415.0582545,153344.234375,154965.90625,191824.640625,234479.828125,157645.34375,159165.703125,142231.484375,143051.703125,0.0
1713490415.0582674,153349.421875,154967.421875,191796.9375,234464.796875,157675.109375,159162.578125,142299.265625,143041.15625,0.0
1713490415.0645325,153386.4375,155010.609375,191832.6875,234521.484375,157726.4375,159202.453125,142372.65625,143093.453125,0.0
1713490415.0645423,153392.34375,155016.421875,191852.09375,234489.75,157703.09375,159215.59375,142318.578125,143095.609375,0.0
1713490415.070871,153371.78125,154987.453125,191837.15625,234466.953125,157665.546875,159197.984375,142257.59375,143080.140625,0.0
1713490415.0708928,153348.359375,154978.0625,191804.703125,234463.90625,157687.359375,159187.703125,142311.859375,143077.90625,0.0
1713490415.0729077,153339.140625,154976.90625,191785.84375,234456.3125,157693.4375,159182.96875,142353.796875,143057.96875,0.0
1713490415.0828824,153341.015625,154963.671875,191778.25,234364.671875,157647.484375,159173.84375,142289.15625,143030.96875,0.0
1713490415.0859287,153361.9375,154961.25,191799.796875,234389.078125,157631.84375,159178.484375,142237.75,143041.0625,0.0
1713490415.0859413,153342.984375,154971.0,191806.5,234525.15625,157688.25,159191.90625,142305.15625,143093.28125,0.0
1713490415.1339917,153310.0,154970.375,191778.515625,234523.984375,157709.265625,159186.265625,142363.625,143101.328125,0.0
1713490415.1370916,153284.875,154937.828125,191734.609375,234327.75,157628.265625,159157.296875,142287.453125,143023.28125,0.0
1713490415.1371057,153269.9375,154911.0,191723.53125,234280.09375,157575.609375,159142.734375,142206.546875,143003.078125,0.0
1713490415.139001,153291.484375,154931.75,191736.9375,234348.03125,157621.734375,159166.953125,142259.296875,143044.375,0.0
1713490415.1415122,153310.890625,154965.453125,191754.734375,234440.578125,157686.296875,159193.328125,142352.546875,143084.4375,0.0
1713490415.1465187,153301.59375,154951.234375,191741.765625,234382.734375,157645.25,159174.109375,142308.640625,143050.8125,0.0
1713490415.1489563,153277.8125,154906.53125,191712.0,234260.953125,157566.9375,159137.546875,142200.28125,143004.140625,0.0
1713490415.151508,153247.953125,154882.75,191689.828125,234278.296875,157558.265625,159109.828125,142187.328125,142995.65625,0.0
1713490415.153992,153262.609375,154906.984375,191696.96875,234351.609375,157620.3125,159130.125,142287.015625,143025.515625,0.0
1713490415.1801782,153317.0625,154941.9375,191737.828125,234388.359375,157643.546875,159160.4375,142313.03125,143061.8125,0.0
1713490415.205317,153295.328125,154925.21875,191736.3125,234345.890625,157596.609375,159150.328125,142228.09375,143043.65625,0.0
1713490415.2303138,153276.921875,154910.734375,191727.8125,234356.53125,157591.34375,159145.765625,142215.125,143048.40625,0.0
1713490415.2552493,153317.78125,154955.984375,191757.6875,234467.3125,157679.3125,159182.25,142334.3125,143118.578125,0.0
1713490415.281469,153310.4375,154947.390625,191735.953125,234401.234375,157644.890625,159164.359375,142318.578125,143041.609375,0.0
1713490415.2908077,153240.078125,154881.59375,191664.34375,234180.046875,157528.75,159109.734375,142180.265625,142939.59375,0.0
1713490415.290821,153261.8125,154880.515625,191681.328125,234206.859375,157534.5625,159118.40625,142168.8125,142968.296875,0.0
1713490415.2929084,153311.78125,154927.09375,191716.109375,234335.34375,157621.203125,159151.671875,142277.265625,143013.703125,0.0
1713490415.2959304,153312.59375,154955.53125,191743.015625,234424.125,157670.828125,159176.96875,142335.109375,143071.375,0.0
1713490415.2959433,153313.484375,154948.375,191744.09375,234343.125,157629.6875,159177.0625,142266.453125,143057.15625,0.0
1713490415.297907,153292.828125,154913.6875,191716.109375,234287.421875,157577.21875,159150.953125,142193.578125,143022.734375,0.0
1713490415.3003137,153263.765625,154912.171875,191697.234375,234377.90625,157625.21875,159153.015625,142269.578125,143069.140625,0.0
1713490415.3028724,153223.546875,154891.875,191644.046875,234280.625,157594.921875,159127.265625,142286.734375,142997.96875,0.0
1713490415.3053334,153252.421875,154901.703125,191664.703125,234218.671875,157563.796875,159138.703125,142239.53125,142980.546875,0.0
1713490415.30791,153268.59375,154905.015625,191685.890625,234230.015625,157557.71875,159159.359375,142208.515625,143010.9375,0.0
1713490415.3103468,153234.890625,154883.375,191651.109375,234244.421875,157571.9375,159139.78125,142237.75,143013.359375,0.0
1713490415.3128605,153254.828125,154903.859375,191654.859375,234283.21875,157612.265625,159148.546875,142310.25,143035.34375,0.0
1713490415.3153217,153271.8125,154915.390625,191663.984375,234210.265625,157582.75,159157.65625,142276.109375,143008.53125,0.0
1713490415.3183672,153223.625,154880.703125,191632.953125,234115.3125,157517.9375,159133.78125,142180.96875,142975.09375,0.0
1713490415.3183796,153224.53125,154870.0625,191632.328125,234190.953125,157538.953125,159119.484375,142203.953125,142987.953125,0.0
1713490415.320904,153243.65625,154886.953125,191631.4375,234232.96875,157581.5,159127.53125,142286.65625,143000.484375,0.0
1713490415.320925,153240.609375,154884.984375,191627.953125,234187.546875,157561.296875,159129.140625,142263.9375,143000.296875,0.0
1713490415.323907,153237.84375,154882.3125,191647.53125,234175.75,157535.375,159132.0,142197.78125,143015.3125,0.0
1713490415.3239195,153245.171875,154872.921875,191647.4375,234221.265625,157544.765625,159123.5,142203.421875,143018.625,0.0
1713490415.3239336,153277.625,154904.5625,191657.453125,234278.21875,157603.046875,159142.90625,142298.453125,143035.4375,0.0
1713490415.3270674,153237.484375,154874.0,191614.1875,234156.96875,157550.84375,159115.546875,142262.6875,142983.484375,0.0
1713490415.3271136,153238.734375,154852.984375,191625.453125,234169.5,157517.3125,159104.375,142181.78125,143002.625,0.0
1713490415.329057,153208.15625,154835.1875,191609.984375,234164.84375,157506.21875,159090.25,142166.578125,143003.609375,0.0
1713490415.3315156,153208.515625,154861.203125,191599.515625,234187.90625,157550.296875,159104.546875,142252.671875,142987.875,0.0
1713490415.334,153233.828125,154881.328125,191616.328125,234210.34375,157576.3125,159126.375,142290.859375,143025.78125,0.0
1713490415.3364353,153245.09375,154884.359375,191628.125,234134.625,157534.296875,159130.03125,142212.71875,142998.78125,0.0
1713490415.3389847,153265.296875,154903.671875,191663.453125,234212.59375,157563.171875,159156.140625,142217.890625,143051.796875,0.0
1713490415.3414962,153233.375,154889.015625,191632.515625,234227.515625,157589.015625,159143.625,142278.34375,143028.015625,0.0
1713490415.3439565,153211.296875,154875.953125,191606.765625,234168.0625,157572.5625,159127.984375,142291.296875,142994.484375,0.0
1713490415.3465123,153201.1875,154868.8125,191612.578125,234150.890625,157539.21875,159125.203125,142228.265625,142998.328125,0.0
1713490415.3490093,153202.34375,154854.234375,191606.40625,234115.84375,157504.96875,159110.359375,142157.015625,142978.578125,0.0
1713490415.3514981,153242.859375,154885.171875,191620.53125,234171.109375,157559.875,159132.171875,142234.4375,142995.921875,0.0
1713490415.3539948,153227.390625,154875.609375,191591.296875,234139.09375,157559.6875,159120.90625,142271.453125,142984.65625,0.0
1713490415.356449,153230.609375,154880.25,191608.90625,234127.03125,157538.140625,159127.890625,142228.625,142997.265625,0.0
1713490415.358956,153214.875,154862.734375,191602.5625,234080.890625,157508.546875,159127.265625,142175.25,143003.515625,0.0
1713490415.3648975,153216.203125,154854.140625,191587.8125,234112.0,157525.984375,159116.09375,142212.53125,142990.28125,0.0
1713490415.3649073,153229.703125,154871.3125,191594.609375,234170.125,157573.71875,159125.46875,142289.875,143029.796875,0.0
1713490415.364913,153224.703125,154863.4375,191589.234375,234110.3125,157535.109375,159121.625,142240.609375,142994.484375,0.0
1713490415.364918,153218.171875,154845.203125,191589.59375,234078.296875,157495.234375,159114.75,142166.75,142989.5625,0.0
1713490415.3649232,153230.6875,154847.625,191581.640625,234106.8125,157513.015625,159111.890625,142192.15625,142989.921875,0.0
1713490415.369933,153255.375,154878.1875,191593.265625,234159.65625,157570.78125,159134.234375,142287.640625,143006.28125,0.0
1713490415.3699412,153212.1875,154857.71875,191565.90625,234085.09375,157536.4375,159120.5625,142255.359375,142987.6875,0.0
1713490415.3699467,153211.296875,154853.421875,191579.84375,234072.484375,157509.890625,159126.09375,142188.9375,143003.515625,0.0
1713490415.3699517,153213.609375,154846.359375,191582.625,234129.34375,157526.96875,159120.5625,142202.515625,143026.234375,0.0
1713490415.3699577,153190.109375,154844.3125,191541.3125,234091.4375,157538.765625,159110.71875,142258.84375,142982.6875,0.0
1713490415.3720248,153195.109375,154846.90625,191541.765625,234067.5625,157529.203125,159113.671875,142255.1875,142977.046875,0.0
1713490415.372034,153190.375,154835.734375,191545.15625,233993.546875,157486.828125,159112.0625,142181.515625,142970.265625,0.0
1713490415.3752189,153191.796875,154839.390625,191557.765625,234049.234375,157499.875,159116.984375,142180.078125,142988.140625,0.0
1713490415.3752675,153185.71875,154840.90625,191534.15625,234076.6875,157530.984375,159107.6875,142245.25,142974.453125,0.0
1713490415.375291,153204.046875,154841.625,191534.796875,234063.359375,157530.625,159109.65625,142265.640625,142976.78125,0.0
1713490415.3817012,153212.1875,154830.09375,191542.921875,234017.59375,157492.09375,159102.140625,142189.828125,142988.234375,0.0
1713490415.381714,153180.265625,154811.40625,191526.5625,233996.21875,157464.375,159092.390625,142149.140625,142964.796875,0.0
1713490415.3817203,153192.96875,154840.015625,191537.5625,234076.0625,157529.46875,159118.234375,142248.203125,142992.875,0.0
1713490415.3817255,153193.59375,154854.6875,191537.03125,234069.453125,157544.84375,159125.46875,142290.40625,143001.1875,0.0
1713490415.3817313,153179.109375,154830.546875,191523.53125,233979.765625,157485.84375,159107.59375,142201.265625,142961.046875,0.0
1713490415.3817368,153160.0625,154797.109375,191502.515625,233951.078125,157438.0,159077.734375,142121.421875,142939.859375,0.0
1713490415.384506,153192.609375,154822.859375,191523.4375,234051.03125,157506.84375,159102.859375,142209.671875,142986.625,0.0
1713490415.384536,153234.265625,154855.484375,191547.84375,234108.515625,157555.484375,159129.140625,142285.484375,143010.84375,0.0
1713490415.3864548,153204.578125,154834.65625,191529.609375,234006.859375,157505.953125,159115.640625,142224.96875,142990.203125,0.0
1713490415.391472,153199.578125,154826.421875,191544.265625,234019.109375,157482.890625,159112.328125,142165.953125,143001.375,0.0
1713490415.393921,153186.703125,154829.5625,191535.5,234076.328125,157515.34375,159115.640625,142212.796875,143006.734375,0.0
1713490415.3964412,153164.4375,154818.734375,191486.78125,234006.5,157509.0,159100.703125,142255.265625,142965.78125,0.0
1713490415.3989475,153160.6875,154814.71875,191491.78125,233969.9375,157492.09375,159101.328125,142228.453125,142991.359375,0.0
1713490415.4014544,153160.515625,154807.75,191503.3125,233963.140625,157465.28125,159100.703125,142160.765625,142992.96875,0.0
1713490415.4082687,153212.0,154839.578125,191539.171875,234083.21875,157521.953125,159131.203125,142219.59375,143028.46875,0.0
1713490415.408282,153222.5625,154853.078125,191519.859375,234047.71875,157545.921875,159133.96875,142292.203125,143001.375,0.0
1713490415.4158041,153142.8125,154802.46875,191463.078125,233905.109375,157474.21875,159091.328125,142226.484375,142942.8125,0.0
1713490415.4158223,153145.390625,154799.0625,191485.703125,233912.453125,157451.5,159096.953125,142159.15625,142964.09375,0.0
1713490415.4414797,153137.4375,154780.109375,191473.015625,233943.734375,157449.0,159084.53125,142153.4375,142953.359375,0.0
1713490415.441514,153161.765625,154809.359375,191489.546875,234054.96875,157514.71875,159098.203125,142243.203125,142989.03125,0.0
1713490415.4415212,153181.078125,154830.453125,191503.140625,234042.625,157526.15625,159116.53125,142261.625,143019.34375,0.0
1713490415.443977,153154.421875,154798.0,191469.4375,233874.53125,157441.21875,159091.953125,142155.84375,142941.46875,0.0
1713490415.4465232,153165.25,154794.234375,191474.34375,233894.03125,157442.75,159092.296875,142145.296875,142951.578125,0.0
1713490415.4489248,153169.53125,154817.484375,191471.125,233946.59375,157500.234375,159111.796875,142239.0,142971.6875,0.0
1713490415.4514377,153173.734375,154828.75,191480.078125,233962.25,157510.78125,159120.5625,142267.34375,142980.0,0.0
1713490415.453954,153184.203125,154831.53125,191498.671875,233930.328125,157483.515625,159124.578125,142204.125,142995.375,0.0
1713490415.4564507,153163.640625,154798.359375,191482.125,233920.859375,157450.796875,159102.9375,142156.203125,142980.265625,0.0
1713490415.458922,153181.609375,154818.296875,191480.78125,233948.921875,157501.578125,159121.0,142242.03125,142991.359375,0.0
1713490415.461979,153182.40625,154830.453125,191480.34375,233962.78125,157519.453125,159128.421875,142281.203125,143001.375,0.0
1713490415.4619944,153158.90625,154801.3125,191472.390625,233923.625,157467.0625,159107.40625,142197.78125,142973.65625,0.0
1713490415.4714808,153136.8125,154783.0625,191466.484375,233918.4375,157443.734375,159099.8125,142148.34375,142979.46875,0.0
1713490415.4746006,153130.375,154780.296875,191437.25,233904.40625,157470.015625,159092.125,142199.65625,142980.1875,0.0
1713490415.4746165,153143.078125,154792.984375,191433.9375,233919.15625,157487.8125,159095.609375,142251.515625,142968.109375,0.0
1713490415.4777603,153144.953125,154787.71875,191436.53125,233863.71875,157443.734375,159089.71875,142186.515625,142932.34375,0.0
1713490415.4971678,153167.65625,154795.5,191466.578125,233894.828125,157438.453125,159099.09375,142141.71875,142959.265625,0.0
1713490415.4971843,153137.703125,154796.65625,191439.296875,233880.078125,157466.171875,159100.34375,142193.21875,142973.203125,0.0
1713490415.4990847,153133.0625,154794.875,191422.046875,233879.640625,157485.21875,159096.78125,142249.375,142956.484375,0.0
1713490415.5021904,153133.953125,154787.984375,191423.296875,233842.984375,157456.328125,159091.046875,142209.21875,142951.65625,0.0
1713490415.5022032,153141.640625,154775.828125,191430.546875,233814.640625,157417.171875,159084.890625,142131.984375,142947.546875,0.0
1713490415.5040495,153167.484375,154788.78125,191443.59375,233868.8125,157455.0,159101.78125,142176.6875,142968.828125,0.0
1713490415.5079455,153148.609375,154799.0625,191427.765625,233897.78125,157494.421875,159111.171875,142258.3125,142977.5,0.0
1713490415.5159593,153128.59375,154783.421875,191412.296875,233845.84375,157462.765625,159098.296875,142227.90625,142960.421875,0.0
1713490415.515972,153115.984375,154761.515625,191405.5,233788.796875,157410.734375,159081.21875,142142.265625,142943.703125,0.0
1713490415.522889,153118.046875,154753.5625,191401.21875,233817.40625,157420.390625,159076.390625,142149.859375,142949.6875,0.0
1713490415.5483024,153129.03125,154770.90625,191398.4375,233861.390625,157472.15625,159088.8125,142238.015625,142963.109375,0.0
1713490415.5483148,153127.15625,154773.140625,191396.75,233832.96875,157459.015625,159086.40625,142230.0625,142955.59375,0.0
1713490415.5728507,153128.859375,154766.4375,191406.9375,233786.734375,157420.21875,159085.328125,142154.78125,142953.8125,0.0
1713490415.5979044,153143.15625,154771.890625,191418.375,233820.0,157430.3125,159093.109375,142152.546875,142970.171875,0.0
1713490415.622821,153137.703125,154779.84375,191402.375,233856.84375,157470.734375,159093.28125,142227.546875,142968.375,0.0
1713490415.6478443,153126.984375,154776.453125,191391.015625,233833.5,157462.6875,159088.109375,142237.203125,142956.125,0.0
1713490415.6729317,153123.671875,154769.03125,191397.375,233778.515625,157423.171875,159087.5625,142164.078125,142947.546875,0.0
1713490415.679109,153116.34375,154759.734375,191390.21875,233777.171875,157403.671875,159080.140625,142125.359375,142941.5625,0.0
1713490415.6815908,153118.3125,154771.171875,191379.765625,233822.0625,157450.25,159086.046875,142205.828125,142955.59375,0.0
1713490415.6840472,153115.359375,154780.03125,191381.09375,233828.40625,157472.609375,159099.640625,142262.515625,142973.203125,0.0
1713490415.6876748,153095.515625,154758.75,191368.765625,233750.890625,157415.828125,159080.765625,142174.984375,142943.34375,0.0
1713490415.6876888,153091.9375,154741.671875,191367.0625,233741.234375,157386.78125,159069.59375,142121.15625,142937.09375,0.0
1713490415.6876953,153106.0625,154761.15625,191371.265625,233803.28125,157437.296875,159078.53125,142189.5625,142953.09375,0.0
1713490415.6920922,153118.3125,154784.3125,191377.515625,233830.109375,157470.90625,159092.921875,142254.90625,142966.0625,0.0
1713490415.6921103,153096.40625,154756.328125,191361.515625,233755.53125,157417.265625,159067.359375,142183.828125,142940.125,0.0
1713490415.6921167,153081.921875,154729.59375,191352.484375,233721.203125,157374.078125,159045.453125,142102.65625,142920.453125,0.0
1713490415.6921327,153093.28125,154742.828125,191353.5625,233771.1875,157413.6875,159057.875,142157.015625,142935.484375,0.0
1713490415.694676,153105.609375,154763.578125,191352.84375,233796.390625,157453.46875,159075.140625,142237.921875,142949.515625,0.0
1713490415.6946957,153102.125,154757.046875,191354.71875,233746.59375,157425.671875,159072.640625,142199.390625,142939.328125,0.0
1713490415.6977615,153098.8125,154738.8125,191359.8125,233712.984375,157387.046875,159063.78125,142121.609375,142931.90625,0.0
1713490415.697776,153103.90625,154744.625,191360.0,233756.34375,157411.359375,159065.390625,142149.234375,142942.359375,0.0
1713490415.6977825,153116.25,154778.0625,191363.390625,233795.328125,157463.671875,159084.890625,142242.75,142958.90625,0.0
1713490415.7029016,153109.8125,154764.375,191354.09375,233745.4375,157432.640625,159073.4375,142207.53125,142939.5,0.0
1713490415.7053812,153098.453125,154739.703125,191346.5,233687.671875,157375.59375,159054.84375,142109.625,142916.078125,0.0
1713490415.7079463,153101.046875,154739.875,191348.734375,233724.421875,157392.59375,159063.96875,142128.765625,142930.296875,0.0
1713490415.710383,153106.421875,154756.953125,191346.234375,233767.78125,157447.484375,159077.46875,142223.53125,142946.46875,0.0
1713490415.7128272,153096.40625,154750.34375,191335.5,233731.84375,157425.9375,159060.296875,142206.09375,142930.46875,0.0
1713490415.7153022,153089.15625,154724.953125,191328.53125,233669.96875,157370.859375,159040.8125,142113.375,142909.109375,0.0
1713490415.7177873,153100.78125,154723.96875,191334.875,233701.265625,157376.3125,159045.28125,142108.734375,142923.234375,0.0
1713490415.7202554,153104.8125,154749.09375,191331.125,233748.5625,157431.921875,159062.796875,142204.21875,142941.203125,0.0
1713490415.722834,153103.203125,154757.9375,191330.859375,233732.03125,157434.96875,159070.9375,142228.890625,142941.109375,0.0
1713490415.725211,153092.296875,154740.78125,191327.359375,233668.015625,157381.234375,159053.140625,142135.109375,142918.484375,0.0
1713490415.7278173,153091.03125,154723.078125,191320.125,233650.65625,157357.625,159041.078125,142092.375,142909.734375,0.0
1713490415.730269,153114.28125,154755.796875,191331.484375,233713.515625,157421.015625,159063.78125,142184.640625,142933.25,0.0
1713490415.7328277,153127.96875,154775.375,191343.09375,233736.3125,157452.046875,159085.6875,142247.3125,142955.859375,0.0
1713490415.7352753,153101.59375,154741.140625,191324.5,233658.984375,157390.703125,159055.375,142153.796875,142920.90625,0.0
1713490415.7378488,153091.671875,154715.296875,191313.59375,233638.859375,157355.21875,159035.53125,142086.296875,142904.09375,0.0
1713490415.7402635,153105.171875,154728.265625,191313.78125,233696.265625,157404.203125,159047.6875,142157.8125,142929.21875,0.0
1713490415.742798,153103.28125,154744.0,191306.265625,233700.28125,157423.609375,159054.9375,142211.453125,142921.796875,0.0
1713490415.7452357,153093.1875,154728.171875,191302.234375,233637.796875,157384.359375,159041.703125,142159.421875,142911.609375,0.0
1713490415.7477908,153098.375,154718.609375,191313.6875,233623.9375,157358.34375,159038.125,142092.640625,142907.5,0.0
1713490415.7508452,153112.234375,154734.515625,191317.359375,233676.59375,157395.265625,159047.515625,142140.109375,142916.96875,0.0
1713490415.7508924,153123.046875,154755.4375,191314.3125,233706.71875,157432.546875,159056.625,142212.265625,142927.15625,0.0
1713490415.7533348,153101.953125,154735.59375,191300.90625,233660.5,157393.03125,159039.546875,142162.28125,142912.328125,0.0
1713490415.7533476,153098.8125,154728.890625,191302.78125,233600.0625,157353.96875,159037.140625,142091.75,142904.640625,0.0
1713490415.7552536,153128.953125,154760.890625,191328.34375,233661.390625,157406.09375,159069.140625,142150.21875,142940.75,0.0
1713490415.7578115,153136.28125,154770.8125,191327.09375,233702.34375,157453.203125,159078.09375,142231.3125,142952.015625,0.0
1713490415.7607486,153122.234375,154755.171875,191315.03125,233653.171875,157421.640625,159065.84375,142199.390625,142931.71875,0.0
1713490415.7607622,153124.125,154748.828125,191324.328125,233613.5625,157384.359375,159060.46875,142123.9375,142929.75,0.0
1713490415.763936,153120.0,154732.90625,191317.625,233650.484375,157390.265625,159049.296875,142128.140625,142940.484375,0.0
1713490415.7639492,153127.875,154754.546875,191314.578125,233701.453125,157439.890625,159057.703125,142214.140625,142944.15625,0.0
1713490415.7639556,153115.453125,154746.140625,191302.0625,233664.171875,157422.8125,159049.03125,142206.8125,142936.375,0.0
1713490415.7675896,153087.90625,154708.40625,191277.75,233559.5625,157349.5,159018.453125,142101.9375,142893.71875,0.0
1713490415.7676024,153100.421875,154711.984375,191285.96875,233593.4375,157355.03125,159022.65625,142094.15625,142904.90625,0.0
1713490415.7676084,153113.296875,154731.5625,191282.296875,233645.5625,157409.578125,159037.046875,142184.734375,142919.125,0.0
1713490415.7708025,153120.90625,154747.65625,191290.4375,233639.046875,157421.109375,159050.546875,142215.03125,142928.328125,0.0
1713490415.7708292,153109.71875,154734.078125,191290.625,233579.859375,157375.78125,159040.625,142133.046875,142913.21875,0.0
1713490415.770836,153094.34375,154706.4375,191280.609375,233574.9375,157352.265625,159024.265625,142090.3125,142904.546875,0.0
1713490415.7732918,153108.296875,154726.375,191285.96875,233643.515625,157412.078125,159041.25,142176.0625,142927.4375,0.0
1713490415.7732995,153114.90625,154741.9375,191284.546875,233650.65625,157426.296875,159048.9375,142210.828125,142929.046875,0.0
1713490415.7751987,153092.296875,154709.9375,191259.234375,233550.796875,157358.796875,159020.421875,142120.984375,142889.875,0.0
1713490415.778222,153084.25,154691.78125,191256.109375,233544.890625,157333.578125,159015.765625,142070.90625,142894.703125,0.0
1713490415.7782283,153101.328125,154725.40625,191275.328125,233643.328125,157406.265625,159043.21875,142170.78125,142948.703125,0.0
1713490415.78021,153104.890625,154743.453125,191265.578125,233601.3125,157418.515625,159047.0625,142218.25,142918.765625,0.0
1713490415.782791,153092.5625,154717.265625,191258.796875,233540.6875,157373.984375,159029.625,142149.140625,142900.34375,0.0
1713490415.7852628,153091.671875,154702.6875,191259.78125,233524.59375,157336.796875,159019.609375,142075.109375,142893.1875,0.0
1713490415.7945576,153094.703125,154710.828125,191255.296875,233572.703125,157373.8125,159027.9375,142128.40625,142906.59375,0.0
1713490415.794572,153097.5625,154731.390625,191252.265625,233597.28125,157410.734375,159039.375,142204.671875,142914.921875,0.0
1713490415.7964215,153095.328125,154724.234375,191251.8125,233549.453125,157380.609375,159034.453125,142165.953125,142905.171875,0.0
1713490415.7989,153089.34375,154697.421875,191246.71875,233507.609375,157332.78125,159017.828125,142083.609375,142893.015625,0.0
1713490415.8077877,153082.28125,154689.546875,191234.296875,233534.875,157343.59375,159010.671875,142106.59375,142897.65625,0.0
1713490415.8120456,153099.890625,154724.0625,191245.375,233587.359375,157400.015625,159032.671875,142201.625,142919.65625,0.0
1713490415.8120625,153093.359375,154725.84375,191243.859375,233534.609375,157375.15625,159027.390625,142169.53125,142899.625,0.0
1713490415.8314753,153095.0625,154719.3125,191257.890625,233494.203125,157340.46875,159026.234375,142092.1875,142895.15625,0.0
1713490415.8339984,153113.125,154730.046875,191274.078125,233547.046875,157370.421875,159040.453125,142114.28125,142926.71875,0.0
1713490415.8376837,153107.484375,154728.078125,191250.390625,233574.3125,157399.109375,159030.4375,142177.9375,142907.578125,0.0
1713490415.8376956,153104.09375,154733.0,191246.8125,233558.84375,157388.75,159028.734375,142175.875,142900.78125,0.0
1713490415.837702,153088.265625,154711.1875,191240.109375,233490.0,157341.71875,159022.03125,142095.046875,142895.515625,0.0
1713490415.8402936,153076.375,154677.5625,191225.984375,233483.46875,157323.03125,159003.875,142073.78125,142888.984375,0.0
1713490415.8457744,153086.390625,154704.65625,191226.875,233543.46875,157383.296875,159023.8125,142169.34375,142915.265625,0.0
1713490415.8457887,153081.46875,154706.53125,191212.125,233501.078125,157376.140625,159024.09375,142188.03125,142901.5,0.0
1713490415.8477385,153083.890625,154693.484375,191219.359375,233455.484375,157333.3125,159017.109375,142108.90625,142887.28125,0.0
1713490415.8503177,153079.328125,154688.46875,191224.375,233465.5,157322.578125,159016.671875,142076.546875,142889.703125,0.0
1713490415.856526,153093.625,154721.015625,191236.796875,233534.53125,157388.5625,159041.78125,142172.296875,142916.078125,0.0
1713490415.8608153,153082.453125,154715.921875,191216.40625,233511.453125,157390.359375,159033.390625,142204.84375,142905.171875,0.0
1713490415.8608277,153069.3125,154687.765625,191204.96875,233455.125,157340.109375,159010.140625,142123.9375,142898.90625,0.0
1713490415.8752227,153079.0625,154686.328125,191217.65625,233463.625,157322.84375,159010.40625,142073.78125,142896.3125,0.0
1713490415.8783023,153080.40625,154698.75,191206.125,233482.75,157356.828125,159015.140625,142135.640625,142895.78125,0.0
1713490415.878313,153081.109375,154714.484375,191201.21875,233506.1875,157380.421875,159020.15625,142190.546875,142906.15625,0.0
1713490415.880829,153077.453125,154703.046875,191201.21875,233441.0,157337.6875,159013.0,142129.390625,142884.703125,0.0
1713490415.8808365,153071.734375,154692.859375,191202.28125,233408.90625,157301.21875,159006.46875,142057.6875,142873.34375,0.0
1713490415.9102132,153081.828125,154698.9375,191203.0,233457.1875,157339.5625,159012.90625,142110.78125,142888.1875,0.0
1713490415.9364479,153069.046875,154690.703125,191182.96875,233477.03125,157361.03125,159001.375,142166.84375,142881.828125,0.0
1713490415.9364605,153068.859375,154688.65625,191187.078125,233430.8125,157338.9375,159005.671875,142133.046875,142876.828125,0.0
1713490415.9364667,153074.671875,154684.890625,191203.0,233413.46875,157315.15625,159011.03125,142068.953125,142883.53125,0.0
1713490415.9564388,153072.53125,154672.203125,191186.546875,233429.203125,157323.75,159003.703125,142087.90625,142878.96875,0.0
1713490415.9564536,153079.421875,154690.0,191179.046875,233465.40625,157367.546875,159015.40625,142171.765625,142892.109375,0.0
1713490415.95646,153082.1875,154695.171875,191186.015625,233445.109375,157354.328125,159019.96875,142157.90625,142887.015625,0.0
1713490415.9596405,153080.40625,154693.921875,191198.625,233407.5625,157317.9375,159019.171875,142080.921875,142883.09375,0.0
1713490415.959687,153080.40625,154688.03125,191194.15625,233412.03125,157325.265625,159022.390625,142090.578125,142885.328125,0.0
1713490415.9627492,153088.453125,154709.21875,191190.21875,233465.40625,157379.625,159040.359375,142188.296875,142904.984375,0.0
1713490415.962762,153067.34375,154678.109375,191165.265625,233426.15625,157349.3125,159015.0625,142169.53125,142886.84375,0.0
1713490415.962768,153042.3125,154652.984375,191154.625,233365.28125,157292.09375,158996.375,142073.59375,142869.046875,0.0
1713490415.9653757,153042.140625,154651.09375,191156.234375,233379.3125,157289.953125,158997.71875,142061.703125,142875.75,0.0
1713490415.9678824,153042.21875,154664.0625,191138.53125,233409.71875,157328.21875,158997.890625,142134.390625,142873.609375,0.0
1713490415.9703147,153058.5,154676.671875,191143.640625,233401.3125,157337.609375,159008.796875,142162.109375,142876.65625,0.0
1713490415.9728084,153048.390625,154668.53125,191147.03125,233348.296875,157298.265625,159006.390625,142092.109375,142873.96875,0.0
1713490415.975203,153038.015625,154650.65625,191146.046875,233364.203125,157280.5625,158994.140625,142050.96875,142866.359375,0.0
1713490415.9778285,153042.40625,154654.3125,191137.640625,233411.328125,157323.296875,158993.15625,142116.875,142869.140625,0.0
1713490415.9802423,153037.125,154655.65625,191116.28125,233364.734375,157314.171875,158984.65625,142134.390625,142835.25,0.0
1713490415.9828253,153062.15625,154680.875,191149.265625,233343.640625,157306.40625,159013.359375,142098.546875,142860.015625,0.0
1713490415.9852164,153068.421875,154667.109375,191164.734375,233357.046875,157294.859375,159011.390625,142058.578125,142877.984375,0.0
1713490415.9877975,153064.390625,154665.140625,191150.703125,233406.765625,157330.71875,159005.578125,142117.40625,142888.71875,0.0
1713490415.99079,153062.78125,154670.765625,191134.609375,233393.53125,157341.796875,158999.046875,142166.125,142873.34375,0.0
1713490415.9908032,153045.625,154656.109375,191126.109375,233333.71875,157297.546875,158984.484375,142103.375,142853.84375,0.0
1713490415.9928217,153045.890625,154644.484375,191136.84375,233331.125,157275.28125,158987.34375,142048.203125,142861.09375,0.0
1713490415.9952316,153037.75,154639.84375,191119.3125,233342.125,157297.640625,158983.671875,142086.921875,142857.15625,0.0
1713490415.9977882,153029.34375,154642.96875,191101.96875,233344.53125,157321.78125,158982.25,142150.9375,142852.328125,0.0
1713490416.0008461,153036.765625,154652.078125,191119.578125,233337.46875,157314.359375,158991.984375,142129.921875,142874.0625,0.0
1713490416.0008688,153036.5,154637.25,191123.703125,233308.234375,157272.96875,158980.71875,142047.75,142861.1875,0.0
1713490416.0028431,153042.765625,154631.515625,191109.75,233314.046875,157275.640625,158972.140625,142057.40625,142837.40625,0.0
1713490416.0146334,153043.75,154641.796875,191098.296875,233335.859375,157314.796875,158974.640625,142136.359375,142849.46875,0.0
1713490416.01468,153041.953125,154655.921875,191106.703125,233306.09375,157307.65625,158982.6875,142126.53125,142856.0,0.0
1713490416.0172558,153029.265625,154645.109375,191107.78125,233255.84375,157264.5625,158977.6875,142041.59375,142844.46875,0.0
1713490416.0173056,153027.921875,154642.96875,191103.9375,233284.625,157272.96875,158982.421875,142046.5,142850.984375,0.0
1713490416.0266068,153028.90625,154647.25,191089.453125,233323.53125,157313.375,158981.53125,142129.75,142856.796875,0.0
1713490416.029663,153012.8125,154639.75,191069.6875,233283.375,157291.015625,158972.765625,142124.5625,142845.53125,0.0
1713490416.029676,153012.984375,154625.625,191077.734375,233243.953125,157254.09375,158977.0625,142060.0,142849.921875,0.0
1713490416.0328662,152998.234375,154602.90625,191062.359375,233237.328125,157232.375,158961.234375,142028.265625,142834.71875,0.0
1713490416.042894,153008.15625,154618.734375,191061.109375,233299.390625,157282.703125,158965.875,142104.625,142841.875,0.0
1713490416.0459094,153009.59375,154626.15625,191060.03125,233282.75,157286.8125,158969.90625,142132.15625,142840.4375,0.0
1713490416.0459225,153012.890625,154618.734375,191068.796875,233219.8125,157250.875,158966.421875,142059.375,142833.5625,0.0
1713490416.0528145,153021.484375,154623.5625,191084.265625,233244.84375,157252.75,158976.4375,142041.3125,142853.21875,0.0
1713490416.0632284,153027.828125,154641.453125,191082.296875,233311.453125,157300.59375,158988.0625,142110.078125,142856.359375,0.0
1713490416.063242,153024.703125,154644.03125,191068.625,233285.796875,157302.734375,158984.65625,142145.921875,142842.9375,0.0
1713490416.0652115,153019.515625,154625.625,191067.734375,233224.109375,157262.328125,158976.4375,142079.671875,142833.375,0.0
1713490416.0690107,153009.765625,154616.765625,191064.234375,233199.609375,157232.8125,158966.515625,142021.109375,142825.515625,0.0
1713490416.083347,153024.4375,154633.046875,191069.0625,233259.515625,157278.421875,158976.875,142084.59375,142838.46875,0.0
1713490416.0833592,153047.3125,154658.25,191081.9375,233294.015625,157317.484375,158995.46875,142152.984375,142853.046875,0.0
1713490416.1314456,153033.28125,154643.59375,191073.265625,233228.390625,157274.75,158982.421875,142088.53125,142827.46875,0.0
1713490416.1314645,153016.109375,154619.8125,191064.15625,233178.859375,157230.578125,158962.3125,142011.09375,142809.140625,0.0
1713490416.1314704,153031.3125,154631.4375,191073.8125,233251.734375,157272.78125,158971.34375,142061.609375,142833.828125,0.0
1713490416.1340768,153033.640625,154644.125,191070.3125,233289.1875,157313.46875,158977.5,142134.21875,142848.578125,0.0
1713490416.1365223,153026.671875,154643.953125,191068.171875,233227.5,157287.265625,158972.765625,142098.453125,142840.4375,0.0
1713490416.1390398,153025.5,154642.15625,191075.59375,233200.859375,157254.90625,158971.0625,142027.28125,142840.703125,0.0
1713490416.1415143,153011.90625,154625.265625,191055.390625,233216.328125,157263.75,158964.453125,142045.15625,142843.296875,0.0
1713490416.1439946,153021.03125,154639.921875,191052.53125,233263.078125,157308.71875,158978.84375,142128.40625,142850.359375,0.0
1713490416.146521,153010.390625,154641.53125,191042.6875,233200.59375,157276.984375,158971.96875,142095.953125,142824.609375,0.0
1713490416.1490152,152998.40625,154633.21875,191045.28125,233146.859375,157235.671875,158968.828125,142020.671875,142819.25,0.0
1713490416.1515229,153010.75,154636.53125,191052.703125,233189.859375,157252.3125,158975.0,142037.125,142834.890625,0.0
1713490416.1590447,153013.875,154622.765625,191037.78125,233232.5,157295.84375,158977.328125,142127.5,142847.140625,0.0
1713490416.1614697,153021.390625,154632.59375,191044.21875,233226.96875,157296.390625,158986.453125,142141.984375,142855.015625,0.0
1713490416.1639333,153013.25,154626.0625,191043.3125,233161.34375,157248.015625,158975.359375,142060.0,142831.765625,0.0
1713490416.1664147,153014.15625,154630.625,191051.453125,233178.421875,157253.828125,158990.015625,142051.515625,142844.1875,0.0
1713490416.1689718,153028.453125,154667.46875,191057.0,233217.578125,157314.796875,159010.40625,142146.8125,142859.296875,0.0
1713490416.17148,153023.453125,154647.53125,191047.609375,233203.71875,157311.234375,158998.515625,142165.78125,142852.6875,0.0
1713490416.1745057,153035.703125,154646.71875,191065.9375,233179.046875,157282.171875,159004.15625,142098.890625,142854.125,0.0
1713490416.1745152,153037.9375,154649.671875,191073.71875,233202.015625,157274.84375,159000.75,142064.390625,142870.21875,0.0
1713490416.1764755,153026.125,154631.609375,191038.765625,233189.59375,157281.09375,158977.5,142096.390625,142813.703125,0.0
1713490416.1795444,153032.390625,154649.578125,191042.875,233200.234375,157304.078125,158991.8125,142146.015625,142825.234375,0.0
1713490416.179551,153036.234375,154645.109375,191053.6875,233152.21875,157275.640625,158998.34375,142092.640625,142824.078125,0.0
1713490416.1814325,153034.890625,154630.8125,191056.546875,233144.703125,157249.171875,158983.859375,142033.8125,142818.4375,0.0
1713490416.183972,153045.796875,154664.78125,191058.609375,233194.6875,157294.234375,158996.109375,142091.296875,142822.203125,0.0
1713490416.187052,153061.53125,154682.03125,191073.71875,233242.875,157341.0,159020.234375,142167.03125,142843.84375,0.0
1713490416.18707,153056.265625,154674.171875,191075.0625,233170.375,157305.78125,159016.75,142113.296875,142834.625,0.0
1713490416.1896706,153047.234375,154654.765625,191070.3125,233132.640625,157263.9375,159000.484375,142037.828125,142816.65625,0.0
1713490416.189719,153060.375,154666.296875,191074.875,233203.0,157309.703125,159015.40625,142099.078125,142850.546875,0.0
1713490416.1915262,153057.515625,154677.125,191057.71875,233220.890625,157337.78125,159015.59375,142164.25,142854.125,0.0
1713490416.2033489,153045.171875,154663.890625,191046.09375,233159.015625,157300.234375,159004.859375,142119.109375,142834.890625,0.0
1713490416.203395,153029.4375,154639.125,191041.796875,233119.234375,157256.421875,158992.34375,142040.15625,142831.59375,0.0
1713490416.205803,153031.40625,154632.140625,191037.0625,233150.4375,157273.3125,158989.03125,142063.765625,142829.984375,0.0
1713490416.2058263,153044.28125,154672.203125,191045.546875,233197.734375,157334.03125,159016.578125,142161.921875,142858.140625,0.0
1713490416.2128189,153036.671875,154667.734375,191043.59375,233151.328125,157317.84375,159017.296875,142150.3125,142854.65625,0.0
1713490416.2165403,153038.734375,154661.03125,191056.8125,233120.484375,157283.875,159016.3125,142080.125,142853.21875,0.0
1713490416.2284117,153064.578125,154679.71875,191077.109375,233180.828125,157316.765625,159040.453125,142110.4375,142883.4375,0.0
1713490416.2284243,153068.234375,154679.984375,191065.21875,233222.578125,157360.40625,159043.390625,142196.078125,142885.765625,0.0
1713490416.2333941,153040.25,154666.84375,191039.75,233163.3125,157336.078125,159029.0,142187.859375,142865.5625,0.0
1713490416.23344,153035.875,154652.4375,191044.390625,233119.859375,157295.578125,159024.53125,142109.09375,142855.640625,0.0
1713490416.2353413,153057.78125,154669.078125,191059.234375,233134.0625,157298.984375,159032.671875,142101.765625,142857.875,0.0
1713490416.2452817,153065.46875,154664.328125,191049.484375,233161.78125,157339.484375,159029.8125,142177.390625,142852.15625,0.0
1713490416.2484312,153070.46875,154686.421875,191064.859375,233181.546875,157363.171875,159050.46875,142208.875,142872.890625,0.0
1713490416.2484782,153065.5625,154681.765625,191071.75,233123.078125,157319.09375,159039.46875,142126.609375,142841.421875,0.0
1713490416.2503371,153068.59375,154681.953125,191071.03125,233110.109375,157293.875,159032.84375,142084.59375,142822.015625,0.0
1713490416.2790544,153098.734375,154733.71875,191085.34375,233173.140625,157360.765625,159071.03125,142182.21875,142851.96875,0.0
1713490416.304628,153124.03125,154757.5,191098.75,233204.703125,157391.421875,159093.46875,142239.625,142869.765625,0.0
1713490416.3046472,153095.234375,154730.9375,191080.875,233129.328125,157333.765625,159077.28125,142153.171875,142833.375,0.0
1713490416.328998,153076.46875,154668.265625,191062.8125,233100.8125,157287.09375,159041.34375,142077.796875,142813.4375,0.0
1713490416.356564,153079.234375,154672.65625,191055.921875,233144.171875,157322.5,159034.375,142129.296875,142820.234375,0.0
1713490416.3565793,153092.296875,154713.859375,191064.328125,233171.890625,157362.1875,159049.484375,142195.90625,142836.0625,0.0
1713490416.3565865,153103.90625,154732.546875,191085.515625,233140.15625,157344.75,159055.296875,142155.84375,142843.5625,0.0
1713490416.3821964,153102.21875,154712.34375,191094.8125,233126.109375,157322.140625,159053.140625,142097.5625,142855.640625,0.0
1713490416.382246,153088.265625,154689.546875,191074.96875,233153.203125,157340.46875,159043.125,142134.125,142854.125,0.0
1713490416.4083264,153103.015625,154734.421875,191076.84375,233169.65625,157382.75,159068.515625,142215.3125,142859.578125,0.0
1713490416.408372,153122.421875,154764.015625,191102.59375,233164.46875,157388.03125,159088.546875,142206.8125,142891.671875,0.0
1713490416.408397,153114.28125,154739.875,191101.171875,233111.71875,157345.203125,159084.703125,142131.703125,142866.640625,0.0
1713490416.4084167,153123.40625,154734.515625,191106.984375,233158.484375,157376.9375,159095.515625,142172.125,142885.5,0.0
1713490416.4216108,153128.765625,154763.578125,191106.4375,233198.4375,157426.390625,159112.515625,142261.34375,142894.703125,0.0
1713490416.424004,153119.828125,154762.6875,191100.265625,233160.71875,157403.5,159102.5,142243.203125,142881.65625,0.0
1713490416.426534,153110.796875,154734.25,191101.703125,233095.796875,157363.703125,159098.203125,142172.484375,142876.203125,0.0
1713490416.4290109,153128.859375,154759.375,191123.609375,233152.21875,157390.4375,159112.328125,142184.1875,142892.921875,0.0
1713490416.4314833,153143.703125,154787.453125,191123.875,233197.8125,157446.140625,159120.203125,142273.328125,142905.609375,0.0
1713490416.434016,153150.21875,154787.625,191128.25,233186.46875,157443.546875,159121.71875,142281.109375,142904.8125,0.0
1713490416.4390159,153141.28125,154746.3125,191125.484375,233130.21875,157396.34375,159108.484375,142198.59375,142891.84375,0.0
1713490416.444024,153137.703125,154751.0625,191119.671875,233112.703125,157377.125,159093.5625,142162.734375,142866.71875,0.0
1713490416.4465008,153132.171875,154764.109375,191106.0,233150.4375,157423.078125,159100.4375,142242.125,142874.59375,0.0
1713490416.4490228,153165.25,154822.40625,191141.125,233203.09375,157459.640625,159135.84375,142287.71875,142900.515625,0.0
1713490416.4515057,153175.53125,154819.71875,191152.3125,233147.03125,157416.734375,159141.484375,142212.796875,142870.21875,0.0
1713490416.4540033,153160.78125,154772.875,191137.203125,233120.921875,157388.390625,159122.96875,142168.09375,142862.34375,0.0
1713490416.45652,153167.03125,154785.296875,191132.8125,233165.359375,157439.265625,159129.671875,142244.359375,142878.703125,0.0
1713490416.459047,153172.3125,154808.09375,191135.671875,233183.15625,157460.359375,159135.125,142288.171875,142883.53125,0.0
1713490416.4615421,153186.890625,154836.4375,191156.234375,233128.609375,157435.140625,159147.921875,142232.375,142877.90625,0.0
1713490416.46413,153206.28125,154815.078125,191176.984375,233147.296875,157426.5625,159152.109375,142193.578125,142896.3125,0.0
1713490416.4666076,153204.40625,154815.15625,191164.734375,233190.578125,157463.671875,159153.546875,142248.125,142903.921875,0.0
1713490416.4691544,153218.984375,154859.953125,191170.1875,233210.953125,157495.140625,159167.578125,142306.40625,142908.03125,0.0
1713490416.4716249,153213.890625,154846.71875,191170.71875,233155.4375,157463.125,159169.375,142259.46875,142896.3125,0.0
1713490416.4741073,153215.046875,154822.9375,191174.75,233130.140625,157431.65625,159155.15625,142192.328125,142899.71875,0.0
1713490416.4766076,153204.046875,154791.203125,191151.59375,233146.40625,157446.40625,159144.96875,142231.84375,142888.71875,0.0
1713490416.4791236,153223.0,154839.75,191164.90625,233197.109375,157502.109375,159171.34375,142327.78125,142915.09375,0.0
1713490416.4815557,153226.21875,154852.796875,191177.078125,233164.109375,157491.109375,159184.296875,142313.828125,142921.703125,0.0
1713490416.4841096,153225.953125,154830.0,191185.75,233136.84375,157456.421875,159176.703125,142239.625,142914.296875,0.0
1713490416.4866145,153250.8125,154869.609375,191202.015625,233183.875,157493.890625,159192.265625,142274.578125,142935.484375,0.0
1713490416.4891088,153258.40625,154865.671875,191194.78125,233219.625,157545.65625,159210.046875,142372.9375,142949.15625,0.0
1713490416.4916117,153257.15625,154867.5625,191198.078125,233186.734375,157532.6875,159206.75,142369.71875,142943.703125,0.0
1713490416.4941013,153246.078125,154869.34375,191207.03125,233157.3125,157495.3125,159196.015625,142274.578125,142933.875,0.0
1713490416.5005643,153256.53125,154878.28125,191215.34375,233184.40625,157505.953125,159205.046875,142275.65625,142918.484375,0.0
1713490416.5005774,153250.09375,154881.765625,191192.1875,233179.046875,157537.0625,159207.28125,142346.640625,142907.578125,0.0
1713490416.5005836,153256.359375,154893.484375,191195.765625,233166.171875,157536.4375,159208.796875,142359.703125,142917.78125,0.0
1713490416.500589,153258.765625,154868.890625,191201.5625,233121.828125,157487.1875,159194.3125,142270.734375,142886.578125,0.0
1713490416.500594,153270.84375,154877.75,191216.59375,233149.984375,157490.75,159197.453125,142250.4375,142893.453125,0.0
1713490416.500599,153271.1875,154893.390625,191212.203125,233194.234375,157544.40625,159207.546875,142337.25,142908.390625,0.0
1713490416.5034485,153290.0625,154930.3125,191236.078125,233220.890625,157579.453125,159239.203125,142387.40625,142942.28125,0.0
1713490416.503461,153294.171875,154905.015625,191240.734375,233163.9375,157533.046875,159226.234375,142303.640625,142923.046875,0.0
1713490416.5053525,153297.921875,154910.828125,191248.421875,233164.015625,157517.125,159225.78125,142260.359375,142913.484375,0.0
1713490416.5090027,153313.21875,154935.953125,191254.59375,233227.046875,157572.75,159235.984375,142337.34375,142933.421875,0.0
1713490416.5090156,153305.078125,154933.890625,191238.578125,233212.5625,157574.703125,159228.03125,142368.90625,142922.875,0.0
1713490416.509022,153314.015625,154943.46875,191255.21875,233172.421875,157547.53125,159236.96875,142313.921875,142929.40625,0.0
1713490416.5161068,153304.09375,154895.546875,191243.59375,233129.421875,157513.46875,159226.0625,142255.8125,142914.203125,0.0
1713490416.5161319,153314.109375,154918.96875,191249.9375,233187.53125,157566.9375,159239.203125,142332.34375,142925.90625,0.0
1713490416.5161383,153332.4375,154960.453125,191261.296875,233217.125,157613.15625,159265.65625,142413.609375,142945.765625,0.0
1713490416.516144,153317.15625,154926.125,191251.453125,233169.5625,157569.34375,159246.171875,142352.28125,142926.0,0.0
1713490416.5161567,153323.234375,154925.21875,191265.765625,233146.5,157549.765625,159252.609375,142301.84375,142929.84375,0.0
1713490416.5161617,153326.359375,154930.140625,191260.671875,233182.890625,157579.890625,159244.921875,142344.59375,142935.390625,0.0
1713490416.5161667,153343.96875,154967.875,191272.46875,233239.21875,157637.734375,159266.46875,142434.890625,142962.390625,0.0
1713490416.517908,153334.21875,154954.453125,191263.171875,233168.40625,157603.859375,159258.515625,142394.390625,142936.1875,0.0
1713490416.5209217,153335.484375,154945.515625,191274.703125,233140.15625,157573.640625,159261.375,142325.90625,142933.25,0.0
1713490416.520934,153341.375,154955.796875,191278.109375,233175.90625,157599.75,159269.0625,142357.546875,142939.6875,0.0
1713490416.522915,153359.171875,154981.109375,191285.515625,233227.953125,157654.640625,159282.828125,142448.65625,142951.921875,0.0
1713490416.5259156,153371.953125,155015.34375,191300.453125,233209.53125,157654.453125,159301.609375,142451.421875,142960.875,0.0
1713490416.5259287,153361.9375,154976.90625,191292.765625,233134.34375,157596.875,159276.65625,142360.59375,142932.34375,0.0
1713490416.5278556,153373.5625,154977.4375,191303.3125,233170.546875,157610.921875,159281.484375,142357.375,142939.953125,0.0
1713490416.530203,153393.234375,155033.140625,191314.578125,233216.234375,157668.859375,159309.296875,142439.890625,142934.765625,0.0
1713490416.5327349,153394.671875,155014.265625,191311.890625,233202.5625,157663.21875,159301.78125,142442.484375,142934.859375,0.0
1713490416.535264,153394.3125,155004.4375,191321.203125,233169.65625,157623.703125,159295.34375,142362.203125,142925.546875,0.0
1713490416.542061,153418.171875,155030.453125,191339.96875,233192.453125,157633.0,159306.171875,142353.703125,142939.859375,0.0
1713490416.5420742,153411.03125,155012.9375,191317.171875,233223.484375,157666.625,159301.609375,142424.515625,142939.328125,0.0
1713490416.544619,153391.625,155003.359375,191299.734375,233197.1875,157656.25,159289.09375,142436.59375,142923.859375,0.0
1713490416.544661,153387.875,155000.765625,191308.5,233144.265625,157617.625,159279.515625,142354.953125,142915.546875,0.0
1713490416.5539951,153394.578125,154995.671875,191320.390625,233165.8125,157610.296875,159278.625,142319.375,142925.109375,0.0
1713490416.5571556,153412.375,155015.4375,191322.265625,233202.375,157665.8125,159298.03125,142405.46875,142945.765625,0.0
1713490416.5572014,153429.0,155030.359375,191335.6875,233232.953125,157697.734375,159311.078125,142466.0,142964.265625,0.0
1713490416.5734112,153442.40625,155056.46875,191357.859375,233196.03125,157678.6875,159325.484375,142418.171875,142964.796875,0.0
1713490416.573424,153439.71875,155062.90625,191358.921875,233160.09375,157654.015625,159329.046875,142365.421875,142951.21875,0.0
1713490416.5753813,153440.171875,155056.03125,191350.515625,233213.109375,157697.109375,159331.5625,142431.484375,142965.078125,0.0
1713490416.5904057,153440.0,155056.03125,191346.234375,233237.96875,157730.375,159339.609375,142501.765625,142970.53125,0.0
1713490416.593413,153416.484375,155041.90625,191339.078125,233182.0,157694.6875,159328.25,142450.453125,142955.0625,0.0
1713490416.5934374,153420.59375,155038.328125,191351.953125,233142.203125,157672.15625,159335.84375,142400.921875,142954.96875,0.0
1713490416.597083,153451.96875,155069.703125,191372.609375,233207.921875,157724.90625,159363.03125,142463.953125,142978.75,0.0
1713490416.5971308,153463.421875,155081.421875,191367.78125,233233.3125,157759.78125,159369.375,142531.625,142974.453125,0.0
1713490416.60085,153457.609375,155069.4375,191362.0625,233171.53125,157722.953125,159353.46875,142486.390625,142947.109375,0.0
1713490416.6008902,153465.203125,155073.015625,191380.03125,233150.4375,157696.75,159357.9375,142418.4375,142946.828125,0.0
1713490416.6107907,153472.53125,155084.71875,191389.140625,233198.53125,157728.40625,159367.140625,142453.671875,142962.296875,0.0
1713490416.6108055,153491.140625,155128.359375,191398.53125,233244.84375,157789.828125,159389.3125,142550.21875,142982.6875,0.0
1713490416.613346,153476.390625,155104.03125,191387.0,233199.6875,157765.59375,159377.875,142528.59375,142966.0625,0.0
1713490416.6133585,153483.625,155102.875,191408.640625,233180.03125,157738.859375,159380.46875,142460.453125,142971.953125,0.0
1713490416.6239426,153494.625,155103.5,191415.703125,233205.78125,157751.375,159377.15625,142457.59375,142976.78125,0.0
1713490416.6496196,153494.796875,155113.0625,191397.109375,233224.015625,157782.671875,159370.265625,142514.109375,142962.21875,0.0
1713490416.649639,153497.84375,155107.609375,191392.0,233204.34375,157766.484375,159356.5,142507.578125,142942.28125,0.0
1713490416.6745772,153492.03125,155093.9375,191396.5625,233151.6875,157725.8125,159351.21875,142430.328125,142930.5625,0.0
1713490416.6745968,153519.03125,155102.609375,191424.46875,233201.484375,157745.921875,159367.046875,142430.15625,142960.953125,0.0
1713490416.701352,153519.03125,155107.171875,191410.609375,233223.296875,157787.140625,159371.96875,142505.609375,142956.9375,0.0
1713490416.7013645,153520.90625,155130.234375,191416.953125,233224.640625,157806.453125,159391.734375,142546.109375,142969.453125,0.0
1713490416.7013724,153522.96875,155130.765625,191430.8125,233175.375,157773.109375,159387.796875,142477.796875,142963.734375,0.0
1713490416.752678,153527.609375,155120.40625,191437.875,233170.90625,157761.84375,159386.984375,142444.1875,142969.0,0.0
1713490416.7527037,153536.375,155148.734375,191438.671875,233230.890625,157816.375,159403.625,142519.5625,142984.828125,0.0
1713490416.75271,153541.109375,155152.859375,191432.515625,233238.5,157828.984375,159403.96875,142559.171875,142975.09375,0.0
1713490416.7652886,153526.625,155143.28125,191427.328125,233177.703125,157784.734375,159390.828125,142486.390625,142958.015625,0.0
1713490416.7678046,153503.828125,155096.890625,191408.375,233119.3125,157741.546875,159370.890625,142424.25,142938.875,0.0
1713490416.770232,153542.1875,155154.109375,191441.453125,233208.1875,157819.6875,159414.890625,142521.703125,142981.4375,0.0
1713490416.7727723,153559.796875,155169.9375,191454.59375,233258.171875,157867.96875,159420.15625,142599.125,143007.890625,0.0
1713490416.7752087,153541.375,155152.9375,191445.375,233179.75,157826.84375,159407.109375,142534.9375,142977.953125,0.0
1713490416.777806,153570.796875,155177.34375,191484.09375,233183.0625,157826.921875,159435.53125,142498.546875,142991.625,0.0
1713490416.7802289,153588.328125,155190.3125,191492.765625,233236.53125,157869.03125,159446.625,142556.484375,143012.90625,0.0
1713490416.7828326,153575.625,155175.46875,191464.25,233220.171875,157883.609375,159432.671875,142612.453125,142993.59375,0.0
1713490416.7852967,153593.421875,155189.0625,191482.75,233205.6875,157872.703125,159440.453125,142587.328125,142996.90625,0.0
1713490416.7877321,153589.21875,155198.359375,191489.28125,233166.796875,157832.65625,159437.953125,142508.828125,142984.390625,0.0
1713490416.79024,153578.75,155170.015625,191473.71875,233198.0,157838.109375,159420.15625,142517.328125,142978.84375,0.0
1713490416.7928734,153594.484375,155170.375,191477.65625,233255.21875,157891.03125,159430.359375,142608.703125,142997.171875,0.0
1713490416.7953062,153603.25,155198.71875,191488.65625,233197.640625,157884.765625,159448.5,142605.390625,142988.671875,0.0
1713490416.7978227,153610.9375,155196.125,191503.3125,233158.921875,157843.015625,159435.359375,142512.765625,142969.625,0.0
1713490416.800304,153597.703125,155172.875,191488.484375,233182.0,157836.765625,159414.96875,142494.25,142956.84375,0.0
1713490416.8028183,153634.09375,155218.75,191511.1875,233251.90625,157913.5625,159453.6875,142604.046875,142992.25,0.0
1713490416.8053062,153626.59375,155219.375,191501.796875,233215.25,157902.203125,159449.75,142605.390625,142983.765625,0.0
1713490416.80782,153602.53125,155190.765625,191486.875,233145.96875,157840.421875,159424.1875,142504.09375,142950.765625,0.0
1713490416.8102648,153611.921875,155195.234375,191495.8125,233162.765625,157841.859375,159432.59375,142485.765625,142955.6875,0.0
1713490416.8128157,153638.828125,155237.171875,191510.921875,233225.71875,157914.90625,159465.9375,142591.34375,142986.625,0.0
1713490416.8152905,153649.296875,155265.6875,191524.859375,233232.0625,157941.8125,159488.109375,142638.828125,142999.671875,0.0
1713490416.8178103,153633.734375,155245.296875,191522.890625,233171.4375,157897.015625,159479.609375,142562.65625,142980.890625,0.0
1713490416.820299,153621.84375,155213.375,191515.03125,233161.703125,157869.3125,159461.28125,142515.265625,142969.8125,0.0
1713490416.8228273,153635.4375,155241.1875,191521.5625,233229.640625,157924.296875,159471.75,142593.234375,142988.234375,0.0
1713490416.8252897,153627.03125,155233.671875,191503.859375,233196.46875,157931.53125,159468.265625,142629.96875,142972.3125,0.0
1713490416.8278162,153636.328125,155253.4375,191523.25,233149.359375,157910.515625,159476.03125,142580.796875,142977.765625,0.0
1713490416.8302395,153618.890625,155211.765625,191510.921875,233128.96875,157868.953125,159449.3125,142510.171875,142956.125,0.0
1713490416.8327267,153648.140625,155250.390625,191536.40625,233215.078125,157941.28125,159481.3125,142598.140625,142999.21875,0.0
1713490416.8352907,153658.765625,155267.65625,191539.171875,233241.265625,157980.96875,159492.75,142670.828125,143014.0625,0.0
1713490416.8383832,153657.796875,155257.28125,191542.84375,233181.71875,157946.46875,159482.390625,142616.921875,142999.9375,0.0
1713490416.838396,153665.484375,155251.109375,191563.125,233184.671875,157928.9375,159487.578125,142560.78125,143010.3125,0.0
1713490416.8489451,153676.75,155280.265625,191568.3125,233216.59375,157965.0625,159500.53125,142607.265625,143016.65625,0.0
1713490416.8489585,153686.9375,155284.734375,191566.890625,233235.28125,158010.75,159512.0625,142692.65625,143026.3125,0.0
1713490416.8489645,153690.515625,155278.375,191575.734375,233199.96875,157994.296875,159512.15625,142667.171875,143022.921875,0.0
1713490416.8489697,153662.96875,155241.640625,191559.90625,233142.46875,157933.234375,159481.40625,142562.65625,142987.328125,0.0
1713490416.8489747,153673.4375,155247.984375,191563.578125,233185.125,157952.640625,159485.34375,142576.59375,142990.203125,0.0
1713490416.848981,153704.109375,155287.328125,191581.734375,233255.578125,158019.234375,159511.359375,142676.90625,143018.453125,0.0
1713490416.8489857,153703.390625,155293.21875,191586.90625,233229.109375,158014.40625,159522.703125,142676.015625,143022.828125,0.0
1713490416.8489907,153691.765625,155281.0625,191582.890625,233145.609375,157961.84375,159511.984375,142586.25,142993.59375,0.0
1713490416.8489957,153698.015625,155290.984375,191593.890625,233191.640625,157980.796875,159520.734375,142594.84375,143010.578125,0.0
1713490416.8490005,153704.28125,155324.15625,191590.40625,233228.84375,158029.4375,159533.34375,142675.65625,143009.421875,0.0
1713490416.8490052,153697.671875,155313.421875,191582.796875,233212.03125,158020.84375,159525.65625,142673.96875,143001.015625,0.0
1713490416.84901,153714.390625,155314.046875,191599.25,233149.8125,157985.359375,159525.296875,142601.984375,142992.96875,0.0
1713490416.8490152,153715.375,155302.703125,191597.640625,233161.703125,157974.265625,159518.421875,142569.890625,142988.59375,0.0
1713490416.8540068,153712.328125,155309.578125,191585.125,233197.015625,158014.6875,159517.796875,142637.578125,142985.71875,0.0
1713490416.8564792,153728.875,155327.734375,191600.328125,233206.671875,158038.828125,159533.265625,142679.15625,142993.859375,0.0
1713490416.858982,153725.46875,155328.0,191613.734375,233165.0,158005.46875,159536.484375,142610.9375,142987.421875,0.0
1713490416.861488,153730.921875,155329.875,191623.390625,233163.3125,157999.484375,159544.796875,142580.984375,142994.671875,0.0
1713490416.863972,153730.921875,155321.46875,191609.53125,233205.0625,158039.265625,159537.640625,142647.765625,142998.953125,0.0
1713490416.8664625,153745.859375,155336.9375,191621.875,233248.421875,158077.625,159552.125,142712.3125,143030.078125,0.0
1713490416.8689845,153729.140625,155307.703125,191607.921875,233159.375,158023.53125,159528.703125,142637.75,143005.3125,0.0
1713490416.8714447,153726.90625,155291.703125,191604.34375,233128.265625,157985.984375,159516.0,142574.546875,142985.546875,0.0
1713490416.8745549,153736.46875,155309.765625,191604.96875,233165.0,158028.09375,159528.875,142638.203125,142992.515625,0.0
1713490416.8745673,153759.53125,155340.25,191625.09375,233219.8125,158081.640625,159551.40625,142724.125,143023.71875,0.0
1713490416.8839583,153757.84375,155326.125,191629.65625,233165.546875,158051.96875,159545.5,142676.015625,143015.5,0.0
1713490416.8883157,153739.15625,155303.765625,191619.8125,233118.875,158005.03125,159526.28125,142591.171875,142991.09375,0.0
1713490416.8883247,153740.9375,155306.90625,191616.859375,233161.25,158034.984375,159525.84375,142631.765625,142995.109375,0.0
1713490416.9195776,153747.640625,155332.203125,191617.9375,233195.578125,158081.109375,159537.734375,142711.328125,143004.40625,0.0
1713490416.9195907,153767.765625,155363.234375,191641.265625,233168.84375,158077.265625,159558.203125,142689.078125,143002.53125,0.0
1713490416.9246247,153763.46875,155348.75,191648.875,233143.546875,158044.453125,159564.015625,142619.0625,142998.328125,0.0
1713490416.924638,153758.90625,155341.140625,191640.921875,233169.390625,158059.75,159566.078125,142638.640625,143003.421875,0.0
1713490416.9264607,153770.171875,155364.65625,191643.15625,233208.640625,158112.5,159578.40625,142733.234375,143018.453125,0.0
1713490416.9289672,153763.296875,155372.796875,191639.75,233152.75,158088.171875,159571.703125,142701.234375,142996.359375,0.0
1713490416.9315457,153753.984375,155342.671875,191637.515625,233093.75,158037.75,159553.109375,142606.734375,142975.625,0.0
1713490416.9340148,153771.34375,155344.546875,191651.28125,233140.421875,158056.25,159556.953125,142616.109375,142990.546875,0.0
1713490416.939056,153791.546875,155381.46875,191657.1875,233191.640625,158114.015625,159573.40625,142705.4375,143005.21875,0.0
1713490416.9415593,153795.46875,155388.0,191660.765625,233182.171875,158112.578125,159576.171875,142711.96875,143001.375,0.0
1713490416.9441152,153795.46875,155368.6875,191673.109375,233132.453125,158078.078125,159573.140625,142643.296875,143003.25,0.0
1713490416.9466033,153803.515625,155373.953125,191683.46875,233148.28125,158080.65625,159580.28125,142629.265625,143011.65625,0.0
1713490416.9496865,153810.5,155393.265625,191677.9375,233185.84375,158133.140625,159591.015625,142713.921875,143020.328125,0.0
1713490416.9496994,153804.328125,155384.5,191668.28125,233173.5,158131.984375,159585.03125,142729.125,143001.375,0.0
1713490416.951608,153782.78125,155352.328125,191658.890625,233103.765625,158076.46875,159554.71875,142635.703125,142978.125,0.0
1713490416.9540808,153782.421875,155345.34375,191664.25,233108.140625,158059.828125,159547.921875,142593.9375,142978.65625,0.0
1713490416.9565635,153792.796875,155348.03125,191659.15625,233150.34375,158105.421875,159553.734375,142667.078125,142987.15625,0.0
1713490416.9646113,153803.34375,155364.921875,191665.0625,233165.546875,158129.125,159562.3125,142719.109375,142994.75,0.0
1713490416.9646244,153807.640625,155369.046875,191676.953125,233104.828125,158097.5625,159566.15625,142666.90625,142990.90625,0.0
1713490416.9664896,153806.109375,155347.578125,191679.625,233093.03125,158071.453125,159560.96875,142612.8125,142991.8125,0.0
1713490416.9783545,153822.125,155369.75,191689.375,233165.1875,158125.90625,159579.21875,142683.34375,143019.875,0.0
1713490416.97837,153826.328125,155402.5625,191690.171875,233175.90625,158168.640625,159604.34375,142763.015625,143035.875,0.0
1713490416.9802988,153804.953125,155385.484375,191677.296875,233110.46875,158127.328125,159591.828125,142705.34375,143013.625,0.0
1713490416.9828143,153787.25,155357.6875,191666.03125,233065.765625,158081.109375,159579.484375,142627.296875,142995.375,0.0
1713490416.9928744,153796.640625,155376.28125,191672.125,233125.75,158119.734375,159591.109375,142676.734375,143012.546875,0.0
1713490417.018443,153798.96875,155387.015625,191669.703125,233152.046875,158165.875,159599.953125,142754.15625,143021.9375,0.0
1713490417.0184746,153811.03125,155397.296875,191690.09375,233124.5,158158.625,159607.640625,142733.6875,143024.4375,0.0
1713490417.0428717,153832.578125,155408.828125,191717.71875,233102.421875,158133.953125,159614.703125,142662.96875,143026.234375,0.0
1713490417.0678828,153824.625,155382.453125,191701.0,233114.671875,158133.140625,159595.671875,142661.71875,143010.765625,0.0
1713490417.1253421,153831.421875,155399.96875,191695.1875,233152.578125,158177.046875,159604.34375,142742.1875,143009.421875,0.0
1713490417.1502936,153830.796875,155404.171875,191698.765625,233129.6875,158167.921875,159609.171875,142739.5,143010.578125,0.0
1713490417.1602836,153827.84375,155395.5,191704.390625,233068.796875,158125.015625,159607.28125,142661.453125,143000.296875,0.0
1713490417.1639469,153838.75,155397.46875,191710.5625,233107.96875,158130.640625,159603.984375,142651.34375,143004.140625,0.0
1713490417.16396,153834.375,155400.0625,191693.578125,233139.796875,158168.546875,159600.765625,142727.15625,143002.53125,0.0
1713490417.1639662,153823.109375,155394.609375,191685.265625,233104.65625,158162.203125,159599.6875,142735.921875,142999.9375,0.0
1713490417.1703107,153824.984375,155392.90625,191699.125,233054.234375,158125.28125,159594.0625,142652.953125,142992.703125,0.0
1713490417.172834,153823.109375,155373.875,191698.40625,233068.453125,158115.0,159579.65625,142618.796875,142991.984375,0.0
1713490417.1752465,153814.078125,155358.125,191676.765625,233103.9375,158152.546875,159573.21875,142685.765625,142994.3125,0.0
1713490417.178276,153829.09375,155372.796875,191684.8125,233116.015625,158168.1875,159573.40625,142720.71875,143002.171875,0.0
1713490417.1782887,153841.078125,155379.59375,191702.515625,233073.8125,158142.4375,159582.875,142666.984375,143007.0,0.0
1713490417.1803348,153832.84375,155362.953125,191697.328125,233060.40625,158121.96875,159575.453125,142626.578125,143002.53125,0.0
1713490417.1827672,153824.4375,155368.234375,191682.578125,233087.9375,158163.09375,159579.921875,142698.1875,143009.0625,0.0
1713490417.1852472,153824.984375,155387.09375,191680.34375,233091.25,158184.828125,159585.03125,142746.203125,143011.921875,0.0
1713490417.1877627,153827.578125,155389.6875,191693.3125,233041.890625,158157.203125,159593.34375,142694.265625,143007.890625,0.0
1713490417.190244,153829.09375,155382.984375,191702.609375,233040.375,158132.25,159590.03125,142637.484375,143010.3125,0.0
1713490417.1927736,153831.6875,155396.125,191697.421875,233089.90625,158171.328125,159595.046875,142698.546875,143026.5,0.0
1713490417.1952496,153816.578125,155379.671875,191667.375,233066.75,158175.171875,159586.453125,142745.75,142999.671875,0.0
1713490417.1977737,153816.578125,155370.65625,191668.546875,233021.5,158137.96875,159578.59375,142687.46875,142984.734375,0.0
1713490417.2002397,153823.734375,155368.234375,191680.609375,233008.09375,158109.71875,159581.453125,142622.375,142985.8125,0.0
1713490417.202734,153825.875,155362.421875,191673.90625,233040.1875,158137.53125,159581.0,142664.84375,143002.09375,0.0
1713490417.2052472,153827.65625,155381.5625,191670.328125,233061.03125,158176.6875,159592.0,142735.75,142995.375,0.0
1713490417.2077365,153827.484375,155388.53125,191679.71875,233025.171875,158159.78125,159595.21875,142707.046875,142983.3125,0.0
1713490417.210298,153844.921875,155398.546875,191706.453125,233001.484375,158140.296875,159606.03125,142640.703125,142991.984375,0.0
1713490417.212803,153871.03125,155407.9375,191728.265625,233067.8125,158179.1875,159618.640625,142675.578125,143022.921875,0.0
1713490417.215316,153861.90625,155411.78125,191709.484375,233098.9375,158218.53125,159612.390625,142750.765625,143029.09375,0.0
1713490417.2177968,153843.125,155393.8125,191690.71875,233034.296875,158183.578125,159588.15625,142717.0625,142996.359375,0.0
1713490417.2202969,153852.078125,155385.84375,191709.40625,233002.90625,158155.3125,159591.546875,142644.28125,142995.921875,0.0
1713490417.2228472,153866.640625,155394.96875,191721.375,233045.28125,158168.640625,159592.0,142645.4375,143011.203125,0.0
1713490417.2253036,153848.578125,155399.703125,191692.5,233045.46875,158195.734375,159581.890625,142710.171875,142996.546875,0.0
1713490417.2278464,153841.796875,155374.046875,191685.890625,233021.234375,158188.84375,159573.671875,142720.640625,142993.5,0.0
1713490417.2303207,153849.921875,155379.953125,191708.15625,232997.1875,158161.9375,159578.859375,142651.703125,143001.46875,0.0
1713490417.23734,153846.078125,155367.96875,191705.015625,233007.375,158146.015625,159567.765625,142619.421875,142994.3125,0.0
1713490417.237353,153853.046875,155390.9375,191698.3125,233031.4375,158195.546875,159587.34375,142708.921875,143005.03125,0.0
1713490417.2373593,153861.015625,155405.78125,191702.0625,233033.671875,158213.34375,159596.375,142751.203125,143019.15625,0.0
1713490417.2373643,153841.34375,155381.46875,191693.671875,232972.515625,158164.4375,159578.59375,142668.328125,143002.359375,0.0
1713490417.2373695,153845.546875,155382.71875,191709.21875,232983.328125,158162.734375,159589.046875,142641.0625,143025.59375,0.0
1713490417.2373748,153851.796875,155403.109375,191705.828125,233027.765625,158207.078125,159597.359375,142705.25,143023.09375,0.0
1713490417.23738,153869.5,155424.921875,191712.359375,233039.921875,158235.25,159611.046875,142763.546875,143032.65625,0.0
1713490417.2389493,153875.5,155412.21875,191722.28125,232992.265625,158205.75,159609.078125,142715.890625,143036.0625,0.0
1713490417.2415524,153868.703125,155401.9375,191724.515625,232981.28125,158175.53125,159603.4375,142650.890625,143029.625,0.0
1713490417.2440395,153854.21875,155395.5,191706.359375,233007.828125,158199.484375,159597.71875,142688.0,143021.3125,0.0
1713490417.25739,153865.03125,155420.0,191709.046875,233024.1875,158238.375,159620.609375,142766.5,143032.125,0.0
1713490417.2574022,153861.640625,155409.984375,191711.375,232976.453125,158205.75,159614.4375,142715.0,143017.546875,0.0
1713490417.257408,153876.390625,155416.15625,191736.21875,232972.875,158189.734375,159622.21875,142659.921875,143029.984375,0.0
1713490417.257413,153877.28125,155401.765625,191727.28125,233006.9375,158211.203125,159613.8125,142688.0,143028.90625,0.0
1713490417.257418,153885.859375,155421.25,191721.5625,233016.5,158244.90625,159616.859375,142760.0625,143026.046875,0.0
1713490417.2574227,153890.515625,155418.125,191730.859375,232990.390625,158227.015625,159613.640625,142735.296875,143026.9375,0.0
1713490417.2574277,153893.90625,155408.734375,191744.09375,232971.078125,158196.984375,159608.1875,142658.765625,143030.078125,0.0
1713490417.2574332,153880.859375,155412.9375,191728.796875,232977.34375,158199.484375,159597.359375,142656.265625,143016.21875,0.0
1713490417.257438,153878.53125,155419.640625,191719.953125,233003.171875,158246.875,159604.6875,142739.140625,143020.765625,0.0
1713490417.257443,153868.4375,155413.390625,191714.59375,232965.625,158231.046875,159599.328125,142728.328125,143015.140625,0.0
1713490417.257448,153864.140625,155396.125,191717.09375,232914.046875,158184.015625,159583.421875,142638.640625,143000.296875,0.0
1713490417.2574527,153888.28125,155422.140625,191738.453125,232956.234375,158207.984375,159603.4375,142651.34375,143023.453125,0.0
1713490417.257458,153894.984375,155439.3125,191728.890625,232996.203125,158255.640625,159617.65625,142740.03125,143032.75,0.0
1713490417.257464,153883.1875,155433.953125,191715.390625,232969.65625,158239.890625,159605.765625,142736.546875,143022.03125,0.0
1713490417.2574692,153880.40625,155419.375,191723.53125,232914.671875,158200.203125,159598.265625,142661.890625,143017.90625,0.0
1713490417.2589667,153878.265625,155414.546875,191728.09375,232938.984375,158195.375,159597.1875,142638.015625,143028.1875,0.0
1713490417.261498,153877.375,155423.3125,191716.828125,232970.8125,158243.921875,159605.40625,142720.90625,143047.234375,0.0
1713490417.2646453,153860.296875,155409.359375,191692.6875,232942.828125,158227.734375,159590.03125,142729.84375,143015.765625,0.0
1713490417.2646585,153877.828125,155420.53125,191715.296875,232902.328125,158199.03125,159600.140625,142670.75,143018.1875,0.0
1713490417.2670991,153881.671875,155404.09375,191724.6875,232915.296875,158184.375,159597.1875,142629.625,143024.171875,0.0
1713490417.2671163,153872.359375,155405.703125,191704.03125,232949.09375,158216.03125,159588.25,142687.640625,143023.8125,0.0
1713490417.2690334,153873.703125,155425.90625,191698.5,232946.21875,158240.796875,159600.3125,142742.359375,143034.09375,0.0
1713490417.2740684,153872.359375,155408.015625,191704.03125,232893.390625,158206.453125,159593.15625,142678.96875,143029.0,0.0
1713490417.276605,153868.171875,155387.375,191705.828125,232867.90625,158174.625,159583.953125,142623.265625,143020.328125,0.0
1713490417.2791016,153870.40625,155393.8125,191705.015625,232927.359375,158218.171875,159590.484375,142683.890625,143039.546875,0.0
1713490417.2815523,153869.6875,155405.078125,191698.765625,232945.875,158249.109375,159595.75,142748.625,143041.875,0.0
1713490417.2840915,153867.0,155399.34375,191700.640625,232892.3125,158220.9375,159595.3125,142699.171875,143030.34375,0.0
1713490417.2915988,153863.96875,155381.90625,191704.484375,232857.625,158185.359375,159584.671875,142621.65625,143017.640625,0.0
1713490417.2984068,153873.265625,155393.265625,191709.484375,232907.515625,158222.546875,159594.40625,142668.59375,143032.21875,0.0
1713490417.298442,153888.90625,155424.46875,191714.3125,232938.265625,158273.96875,159614.078125,142759.609375,143047.0625,0.0
1713490417.306406,153879.78125,155420.453125,191710.03125,232892.046875,158245.703125,159603.984375,142716.875,143032.65625,0.0
1713490417.306431,153883.71875,155416.96875,191723.890625,232858.421875,158211.5625,159605.859375,142637.03125,143030.515625,0.0
1713490417.306444,153902.140625,155435.5625,191742.125,232910.46875,158245.796875,159626.25,142672.796875,143048.046875,0.0
1713490417.312094,153889.796875,155446.375,191719.234375,232915.296875,158277.265625,159622.9375,142744.6875,143043.75,0.0
1713490417.3121066,153894.8125,155460.0625,191728.4375,232902.15625,158268.15625,159628.125,142738.609375,143045.1875,0.0
1713490417.3140728,153867.453125,155412.046875,191707.609375,232825.078125,158199.03125,159596.828125,142628.546875,143014.421875,0.0
1713490417.3178122,153865.921875,155402.65625,191701.359375,232838.9375,158198.0625,159595.390625,142623.453125,143021.671875,0.0
1713490417.3282847,153863.421875,155398.09375,191682.21875,232875.421875,158233.28125,159587.078125,142701.5,143027.03125,0.0
1713490417.328297,153864.59375,155405.703125,191679.09375,232858.609375,158226.671875,159589.140625,142710.53125,143023.640625,0.0
1713490417.33021,153858.515625,155387.28125,191679.8125,232804.34375,158177.765625,159573.484375,142622.90625,143012.1875,0.0
1713490417.3433378,153850.46875,155369.3125,191673.109375,232804.0625,158160.765625,159557.125,142588.9375,143012.8125,0.0
1713490417.3433487,153858.6875,155388.078125,191669.890625,232851.09375,158211.640625,159564.90625,142672.53125,143029.796875,0.0
1713490417.345244,153872.453125,155406.5,191684.640625,232877.921875,158240.875,159584.84375,142726.71875,143054.5625,0.0
1713490417.3477972,153860.390625,155392.546875,191681.859375,232807.28125,158194.296875,159571.96875,142643.390625,143036.421875,0.0
1713490417.3514915,153841.96875,155368.59375,191669.703125,232791.90625,158163.1875,159553.828125,142586.4375,143025.6875,0.0
1713490417.3783712,153851.890625,155369.9375,191664.609375,232817.03125,158206.453125,159568.125,142663.859375,143027.125,0.0
1713490417.378384,153869.6875,155392.734375,191679.0,232856.46875,158245.796875,159589.578125,142730.296875,143050.359375,0.0
1713490417.402817,153855.5625,155386.109375,191674.171875,232788.25,158203.0625,159580.640625,142663.859375,143030.96875,0.0
1713490417.4284065,153850.015625,155367.96875,191678.734375,232770.0,158173.828125,159568.125,142607.53125,143025.59375,0.0
1713490417.4284413,153862.984375,155382.71875,191685.265625,232826.421875,158219.78125,159581.71875,142662.515625,143038.75,0.0
1713490417.4529169,153873.703125,155399.53125,191685.0,232849.84375,158256.703125,159590.5625,142730.734375,143047.421875,0.0
1713490417.4778278,153855.640625,155383.171875,191670.6875,232779.484375,158211.375,159574.203125,142671.453125,143025.953125,0.0
1713490417.4903977,153841.796875,155363.140625,191666.03125,232744.609375,158167.296875,159557.9375,142584.828125,143008.796875,0.0
1713490417.493924,153849.84375,155391.03125,191675.421875,232792.625,158202.4375,159571.96875,142619.6875,143010.765625,0.0
1713490417.493937,153862.796875,155422.6875,191683.109375,232835.09375,158258.671875,159592.265625,142714.015625,143035.609375,0.0
1713490417.4939432,153868.515625,155424.5625,191692.953125,232809.609375,158246.953125,159597.1875,142700.0625,143045.359375,0.0
1713490417.498304,153865.921875,155412.484375,191694.203125,232755.25,158199.484375,159590.21875,142612.453125,143022.734375,0.0
1713490417.4983516,153859.671875,155401.046875,191686.15625,232775.28125,158206.8125,159588.6875,142614.0625,143021.484375,0.0
1713490417.4983745,153880.6875,155433.5,191702.0625,232844.84375,158271.453125,159609.4375,142714.546875,143055.546875,0.0
1713490417.4983947,153854.484375,155406.140625,191677.9375,232796.921875,158236.765625,159585.46875,142692.03125,143042.3125,0.0
1713490417.5014539,153849.203125,155387.015625,191677.03125,232740.59375,158191.171875,159574.296875,142610.484375,143039.1875,0.0
1713490417.5014997,153841.515625,155371.984375,191662.46875,232730.671875,158175.171875,159556.5,142587.78125,143025.328125,0.0
1713490417.501523,153854.484375,155392.46875,191661.125,232782.4375,158226.578125,159569.5625,142675.390625,143036.0625,0.0
1713490417.504031,153853.40625,155384.78125,191658.265625,232770.453125,158222.90625,159563.484375,142687.375,143034.8125,0.0
1713490417.506559,153832.765625,155361.34375,191651.734375,232701.15625,158169.984375,159542.640625,142597.875,143015.9375,0.0
1713490417.509072,153835.984375,155357.953125,191661.03125,232714.578125,158169.71875,159548.640625,142578.03125,143027.5625,0.0
1713490417.5115783,153841.96875,155365.90625,191655.75,232760.703125,158219.421875,159554.0,142660.1875,143039.015625,0.0
1713490417.5139716,153853.40625,155382.453125,191660.3125,232764.28125,158232.65625,159564.28125,142697.390625,143045.359375,0.0
1713490417.5165708,153830.53125,155355.09375,191645.921875,232689.71875,158177.140625,159546.21875,142614.234375,143023.28125,0.0
1713490417.5189812,153821.21875,155338.640625,191640.109375,232673.53125,158149.421875,159534.515625,142564.171875,143016.125,0.0
1713490417.52161,153826.765625,155352.140625,191637.25,232723.953125,158194.75,159538.265625,142633.90625,143025.6875,0.0
1713490417.5240088,153826.765625,155362.953125,191633.578125,232729.328125,158215.40625,159545.6875,142684.875,143026.765625,0.0
1713490417.5265296,153825.96875,155359.828125,191641.625,232694.09375,158184.109375,159545.234375,142624.609375,143022.921875,0.0
1713490417.5290792,153835.796875,155372.34375,191658.96875,232679.703125,158171.046875,159562.671875,142579.1875,143033.5625,0.0
1713490417.5315866,153846.53125,155388.34375,191661.65625,232733.703125,158212.453125,159572.59375,142638.828125,143035.4375,0.0
1713490417.5590336,153825.78125,155372.265625,191630.28125,232711.4375,158220.765625,159554.1875,142678.609375,143018.453125,0.0
1713490417.5614836,153802.265625,155363.765625,191614.0,232643.21875,158169.890625,159529.328125,142604.21875,142984.03125,0.0
1713490417.5639865,153809.875,155356.515625,191631.53125,232645.109375,158151.03125,159528.96875,142544.859375,142999.5,0.0
1713490417.5664804,153815.234375,155348.46875,191627.6875,232675.6875,158171.953125,159523.15625,142570.875,142997.796875,0.0
1713490417.5689845,153830.703125,155388.625,191635.640625,232721.09375,158220.234375,159542.203125,142650.890625,143012.09375,0.0
1713490417.5714748,153826.40625,155382.546875,191632.421875,232664.6875,158196.09375,159542.296875,142625.421875,143007.625,0.0
1713490417.5740428,153821.859375,155362.78125,191632.515625,232616.765625,158155.9375,159540.59375,142549.59375,143003.515625,0.0
1713490417.57651,153826.59375,155355.0,191627.859375,232653.15625,158169.890625,159543.09375,142567.5625,143017.015625,0.0
1713490417.5823357,153832.40625,155377.359375,191624.90625,232698.484375,158217.640625,159552.65625,142655.015625,143029.796875,0.0
1713490417.5852385,153818.8125,155367.703125,191618.03125,232665.40625,158200.46875,159545.421875,142650.09375,143027.84375,0.0
1713490417.5895078,153813.171875,155353.21875,191625.1875,232625.4375,158166.21875,159543.359375,142578.296875,143038.5625,0.0
1713490417.5895348,153792.171875,155318.078125,191598.8125,232611.9375,158141.8125,159517.96875,142547.0,143013.0,0.0
1713490417.5895412,153788.140625,155319.953125,191580.296875,232636.609375,158175.53125,159510.1875,142615.84375,143009.0625,0.0
1713490417.5895472,153801.46875,155342.125,191593.625,232636.703125,158186.34375,159525.5625,142640.4375,143022.203125,0.0
1713490417.594013,153786.984375,155316.015625,191586.375,232571.609375,158132.609375,159512.25,142556.125,143005.03125,0.0
1713490417.5977361,153778.3125,155301.625,191580.03125,232573.3125,158114.546875,159507.59375,142520.1875,143000.484375,0.0
1713490417.5977693,153793.15625,155323.984375,191583.609375,232630.4375,158175.96875,159527.890625,142615.140625,143024.96875,0.0
1713490417.5977955,153781.265625,155333.984375,191571.0,232610.859375,158179.09375,159532.8125,142645.625,143022.203125,0.0
1713490417.6002412,153776.34375,155322.640625,191577.265625,232558.203125,158142.53125,159529.140625,142580.71875,143017.734375,0.0
1713490417.6027284,153771.515625,155308.515625,191576.90625,232551.765625,158120.453125,159521.453125,142537.171875,143018.0,0.0
1713490417.6052647,153781.703125,155328.0,191575.375,232599.953125,158167.921875,159528.78125,142605.390625,143029.984375,0.0
1713490417.6077805,153785.1875,155337.03125,191571.796875,232611.9375,158189.203125,159527.71875,142645.265625,143027.296875,0.0
1713490417.6102173,153772.234375,155322.1875,191568.3125,232553.109375,158148.96875,159513.40625,142576.234375,143007.890625,0.0
1713490417.6133296,153758.46875,155299.84375,191562.234375,232525.03125,158111.0625,159499.28125,142505.15625,142992.96875,0.0
1713490417.6133506,153776.34375,155327.28125,191572.703125,232587.4375,158162.375,159520.46875,142568.90625,143015.671875,0.0
1713490417.6186345,153776.96875,155336.9375,191563.046875,232602.1875,158188.046875,159520.03125,142625.6875,143014.421875,0.0
1713490417.6186688,153764.625,155321.75,191557.40625,232546.125,158152.1875,159508.5,142577.578125,143002.09375,0.0
1713490417.6186872,153771.96875,155318.796875,191571.890625,232518.6875,158122.328125,159509.5625,142509.0,143002.09375,0.0
1713490417.6187017,153784.84375,155329.34375,191579.046875,232573.125,158156.21875,159517.34375,142549.234375,143019.4375,0.0
1713490417.6187143,153810.3125,155364.03125,191592.71875,232627.578125,158213.078125,159538.359375,142641.515625,143044.734375,0.0
1713490417.620233,153802.265625,155360.640625,191587.453125,232567.234375,158187.5,159536.75,142617.1875,143036.234375,0.0
1713490417.6227667,153778.484375,155315.484375,191575.203125,232512.328125,158137.078125,159518.5,142526.0,143021.125,0.0
1713490417.6252255,153770.53125,155308.875,191566.890625,232541.390625,158141.1875,159508.9375,142522.234375,143016.578125,0.0
1713490417.6277282,153770.984375,155330.234375,191553.5625,232563.921875,158179.640625,159519.125,142606.015625,143016.65625,0.0
1713490417.6308331,153769.734375,155335.59375,191547.578125,232519.9375,158159.25,159512.421875,142591.265625,143003.96875,0.0
1713490417.6308527,153765.171875,155319.859375,191553.65625,232472.28125,158119.203125,159511.171875,142518.84375,143003.25,0.0
1713490417.632743,153766.15625,155296.265625,191551.328125,232498.828125,158117.59375,159502.59375,142512.859375,143014.15625,0.0
1713490417.6352477,153760.078125,155303.421875,191534.703125,232534.78125,158155.59375,159499.734375,142589.734375,143017.28125,0.0
1713490417.6378243,153739.15625,155289.109375,191511.640625,232495.796875,158134.484375,159482.65625,142587.234375,143001.015625,0.0
1713490417.6408827,153713.046875,155262.203125,191495.546875,232418.375,158073.25,159460.578125,142491.75,142974.640625,0.0
1713490417.6408954,153728.25,155277.671875,191516.109375,232446.703125,158083.53125,159476.484375,142485.84375,143003.96875,0.0
1713490417.6428196,153727.796875,155286.78125,191505.375,232494.28125,158130.90625,159490.796875,142570.4375,143005.65625,0.0
1713490417.6458259,153734.328125,155306.28125,191509.3125,232502.140625,158152.28125,159507.328125,142613.4375,143017.46875,0.0
1713490417.6458507,153734.765625,155310.75,191518.96875,232442.328125,158119.203125,159512.515625,142546.640625,143009.6875,0.0
1713490417.6553223,153720.546875,155286.515625,191510.296875,232425.609375,158085.21875,159492.3125,142480.84375,142994.9375,0.0
1713490417.6596708,153733.609375,155305.5625,191516.734375,232490.25,158138.421875,159503.9375,142555.765625,143017.46875,0.0
1713490417.65969,153757.296875,155340.703125,191532.828125,232514.03125,158181.0625,159530.484375,142627.203125,143043.296875,0.0
1713490417.6653273,153731.734375,155299.75,191511.8125,232437.671875,158121.4375,159494.546875,142541.015625,143009.6875,0.0
1713490417.6696963,153709.015625,155262.28125,191493.03125,232395.75,158068.0625,159461.546875,142454.015625,142980.625,0.0
1713490417.6697087,153733.78125,155288.390625,191506.71875,232456.90625,158115.0,159479.53125,142512.140625,142995.203125,0.0
1713490417.6766388,153760.078125,155327.203125,191525.9375,232498.65625,158164.890625,159506.265625,142590.71875,143013.53125,0.0
1713490417.6809964,153751.046875,155314.40625,191521.296875,232436.15625,158127.78125,159496.15625,142536.984375,142995.375,0.0
1713490417.6810105,153743.078125,155290.265625,191520.484375,232402.71875,158088.171875,159483.8125,142463.40625,142985.28125,0.0
1713490417.6958528,153741.921875,155290.1875,191516.375,232449.5625,158112.3125,159486.953125,142493.359375,142994.671875,0.0
1713490417.695868,153743.796875,155306.0,191507.4375,232467.359375,158149.6875,159493.734375,142564.265625,143002.09375,0.0
1713490417.6978316,153743.890625,155305.375,191512.96875,232433.390625,158131.53125,159492.75,142544.59375,143005.578125,0.0
1713490417.7028103,153738.34375,155287.765625,191516.375,232392.796875,158087.28125,159480.6875,142460.8125,142996.71875,0.0
1713490417.70527,153737.1875,155277.9375,191505.28125,232412.5625,158086.828125,159465.484375,142460.375,142994.125,0.0
1713490417.7090023,153736.734375,155290.453125,191493.578125,232456.453125,158132.34375,159470.859375,142548.53125,143006.109375,0.0
1713490417.7196407,153730.03125,155285.4375,191485.265625,232417.734375,158117.859375,159472.015625,142547.28125,143006.375,0.0
1713490417.7196872,153708.390625,155269.625,191474.796875,232341.03125,158061.625,159463.078125,142458.84375,142986.984375,0.0
1713490417.7221298,153689.0,155243.25,191456.640625,232342.90625,158053.3125,159454.578125,142446.875,142987.953125,0.0
1713490417.7221515,153705.796875,155289.203125,191466.921875,232409.15625,158125.453125,159485.515625,142554.15625,143021.9375,0.0
1713490417.751662,153707.046875,155290.984375,191469.609375,232426.6875,158131.71875,159491.859375,142573.828125,143035.34375,0.0
1713490417.7796736,153686.21875,155261.84375,191455.578125,232333.515625,158066.09375,159467.1875,142476.546875,142996.984375,0.0
1713490417.779694,153681.21875,155246.1875,191450.5625,232323.859375,158048.5625,159453.15625,142439.71875,142994.3125,0.0
1713490417.8077765,153689.078125,155259.78125,191447.53125,232375.71875,158100.953125,159461.546875,142520.546875,143008.4375,0.0
1713490417.8353212,153700.34375,155266.578125,191453.078125,232388.859375,158117.671875,159466.375,142555.40625,143016.578125,0.0
1713490417.8452451,153699.625,155257.015625,191460.9375,232345.5,158079.40625,159459.5,142481.109375,143011.296875,0.0
1713490417.8478324,153687.03125,155229.921875,191449.046875,232315.90625,158039.8125,159440.71875,142416.734375,142986.0,0.0
1713490417.8502944,153676.203125,155231.171875,191431.171875,232349.875,158071.640625,159436.25,142474.40625,142988.859375,0.0
1713490417.8528435,153679.875,155247.0,191428.578125,232356.5,158089.875,159437.59375,142518.3125,142987.609375,0.0
1713490417.8553247,153680.40625,155239.046875,191431.078125,232299.640625,158050.0,159428.109375,142449.640625,142968.5625,0.0
1713490417.857829,153685.328125,155230.28125,191438.3125,232279.703125,158022.109375,159425.703125,142386.78125,142963.828125,0.0
1713490417.8603227,153688.015625,155239.046875,191435.640625,232325.921875,158058.21875,159431.328125,142435.0625,142969.71875,0.0
1713490417.8628185,153703.390625,155255.3125,191446.359375,232367.765625,158104.359375,159446.53125,142510.34375,142987.78125,0.0
1713490417.8652878,153693.28125,155245.921875,191444.578125,232312.859375,158068.234375,159433.484375,142458.671875,142974.8125,0.0
1713490417.8678424,153693.375,155226.96875,191450.65625,232272.453125,158034.53125,159428.5625,142393.140625,142975.53125,0.0
1713490417.8702917,153712.328125,155245.921875,191462.28125,232330.21875,158070.921875,159444.65625,142430.953125,142996.8125,0.0
1713490417.8727777,153722.34375,155271.40625,191460.84375,232364.453125,158118.03125,159462.359375,142518.9375,143016.390625,0.0
1713490417.8752203,153690.515625,155245.84375,191433.140625,232296.6875,158069.40625,159435.890625,142472.796875,142985.71875,0.0
1713490417.8777683,153671.921875,155223.390625,191423.296875,232242.140625,158017.453125,159421.859375,142386.875,142969.984375,0.0
1713490417.8802292,153661.640625,155211.5,191407.921875,232260.5625,158023.171875,159420.34375,142398.765625,142977.140625,0.0
1713490417.8827765,153663.953125,155237.171875,191403.8125,232307.953125,158076.1875,159437.5,142492.28125,142996.28125,0.0
1713490417.8858285,153660.46875,155239.3125,191402.5625,232273.078125,158066.0,159438.484375,142484.59375,142992.34375,0.0
1713490417.8858373,153662.34375,155234.03125,191413.203125,232225.96875,158029.796875,159434.46875,142408.6875,142988.671875,0.0
1713490417.888329,153651.796875,155210.96875,191401.578125,232245.71875,158021.921875,159421.5,142389.375,142989.484375,0.0
1713490417.8883383,153647.328125,155217.9375,191387.453125,232286.84375,158063.9375,159423.734375,142468.78125,142997.609375,0.0
1713490417.8908246,153638.203125,155217.9375,191376.0,232257.609375,158055.8125,159423.203125,142479.859375,142989.5625,0.0
1713490417.890832,153633.5625,155204.796875,191380.390625,232200.84375,158012.171875,159421.40625,142403.59375,142980.1875,0.0
1713490417.8933315,153649.828125,155212.046875,191393.078125,232213.09375,158006.546875,159422.3125,142377.40625,142988.140625,0.0
1713490417.8933702,153651.703125,155217.671875,191378.78125,232258.59375,158046.0625,159420.15625,142445.890625,142992.078125,0.0
1713490417.8958943,153641.875,155197.828125,191361.421875,232251.4375,158041.859375,159407.1875,142463.671875,142982.953125,0.0
1713490417.8959072,153611.125,155169.9375,191343.375,232173.296875,157981.328125,159382.25,142369.71875,142952.90625,0.0
1713490417.897856,153601.46875,155144.984375,191338.09375,232149.15625,157950.125,159370.53125,142309.8125,142940.84375,0.0
1713490417.900849,153621.671875,155173.328125,191349.0,232215.765625,158006.640625,159388.234375,142389.65625,142964.53125,0.0
1713490417.9008615,153626.765625,155184.140625,191345.515625,232224.53125,158027.375,159388.859375,142439.265625,142965.4375,0.0
1713490417.9033303,153609.78125,155161.96875,191338.359375,232158.109375,157979.984375,159369.375,142366.40625,142940.03125,0.0
1713490417.9033427,153626.3125,155166.984375,191357.859375,232145.9375,157965.421875,159381.171875,142318.390625,142948.890625,0.0
1713490417.906394,153631.421875,155168.046875,191351.0625,232195.203125,157996.625,159376.703125,142361.578125,142954.96875,0.0
1713490417.9064028,153633.5625,155183.515625,191347.75,232224.890625,158033.8125,159388.78125,142434.078125,142970.34375,0.0
1713490417.906408,153620.78125,155181.734375,191344.53125,232165.609375,158005.734375,159389.9375,142395.640625,142965.609375,0.0
1713490417.912778,153607.71875,155166.890625,191340.15625,232121.53125,157955.9375,159378.046875,142302.75,142937.625,0.0
1713490417.9127915,153613.0,155181.203125,191344.703125,232173.21875,157996.078125,159399.953125,142354.6875,142966.140625,0.0
1713490417.9127984,153610.9375,155199.4375,191339.34375,232204.78125,158041.0625,159415.515625,142442.40625,142984.03125,0.0
1713490417.9158947,153587.875,155190.3125,191324.859375,232150.765625,158005.921875,159402.375,142403.0625,142966.140625,0.0
1713490417.9159076,153593.6875,155177.625,191335.5,232110.8125,157968.09375,159396.109375,142325.640625,142963.015625,0.0
1713490417.91831,153599.9375,155177.796875,191337.203125,232150.140625,157989.828125,159403.34375,142348.703125,142986.625,0.0
1713490417.918346,153594.484375,155194.0625,191322.265625,232180.359375,158034.265625,159414.53125,142435.78125,143000.75,0.0
1713490417.9202976,153593.0625,155184.859375,191315.921875,232148.53125,158017.71875,159408.53125,142425.59375,142993.421875,0.0
1713490417.9227288,153581.609375,155161.4375,191310.015625,232090.15625,157956.296875,159384.21875,142325.09375,142964.796875,0.0
1713490417.9252734,153582.859375,155167.96875,191317.359375,232123.59375,157962.375,159385.46875,142320.53125,142979.46875,0.0
1713490417.927789,153569.8125,155176.375,191295.453125,232134.234375,157997.875,159385.296875,142395.1875,142978.125,0.0
1713490417.9302914,153541.65625,155151.25,191262.90625,232091.40625,157967.03125,159354.53125,142386.703125,142953.265625,0.0
1713490417.934634,153544.953125,155122.453125,191266.84375,232047.0625,157925.90625,159343.453125,142302.484375,142943.796875,0.0
1713490417.934647,153572.765625,155142.296875,191286.859375,232063.875,157934.21875,159362.046875,142285.9375,142962.65625,0.0
1713490417.943997,153577.765625,155137.03125,191275.328125,232113.40625,157976.59375,159364.28125,142356.5625,142971.953125,0.0
1713490417.948407,153573.203125,155136.671875,191270.0625,232122.703125,157981.59375,159360.53125,142382.9375,142967.9375,0.0
1713490417.948483,153531.28125,155113.15625,191262.28125,232060.109375,157936.546875,159348.8125,142313.75,142964.890625,0.0
1713490417.9540155,153508.125,155096.609375,191246.359375,232009.953125,157889.25,159330.9375,142243.640625,142931.359375,0.0
1713490417.960918,153520.28125,155113.875,191243.859375,232062.171875,157933.40625,159341.921875,142313.109375,142946.828125,0.0
1713490417.9609644,153532.53125,155128.265625,191246.984375,232087.921875,157967.921875,159359.1875,142378.109375,142965.515625,0.0
1713490417.9734473,153550.046875,155130.40625,191256.203125,232034.359375,157936.984375,159356.140625,142315.359375,142955.140625,0.0
1713490417.9734817,153547.46875,155124.953125,191258.796875,232000.203125,157907.578125,159358.375,142250.625,142944.953125,0.0
1713490417.9759672,153512.765625,155121.46875,191248.59375,232055.640625,157950.75,159371.875,142313.203125,142970.796875,0.0
1713490417.975999,153507.859375,155130.765625,191245.203125,232084.34375,157987.0625,159378.578125,142381.515625,142981.96875,0.0
1713490417.9779148,153507.859375,155126.75,191244.03125,232023.28125,157948.78125,159373.671875,142329.75,142958.359375,0.0
1713490417.9816313,153533.328125,155139.796875,191264.875,232013.359375,157924.46875,159376.796875,142265.46875,142968.921875,0.0
1713490417.9971468,153550.765625,155163.5,191264.609375,232045.359375,157946.375,159375.359375,142293.890625,142976.15625,0.0
1713490417.9971943,153511.875,155120.578125,191228.578125,232049.203125,157960.40625,159355.609375,142350.484375,142968.5625,0.0
1713490417.9995685,153515.546875,155112.625,191232.5,232021.3125,157939.046875,159349.703125,142323.75,142970.609375,0.0
1713490417.9995844,153504.90625,155118.078125,191240.015625,231981.609375,157904.078125,159348.0,142246.328125,142976.609375,0.0
1713490418.0103085,153478.171875,155118.4375,191220.875,231991.359375,157905.25,159343.265625,142246.59375,142979.90625,0.0
1713490418.0153627,153515.71875,155123.4375,191214.890625,232034.546875,157941.015625,159342.203125,142316.96875,142967.046875,0.0
1713490418.0184016,153511.15625,155117.890625,191221.6875,232023.09375,157946.640625,159354.984375,142330.015625,142988.40625,0.0
1713490418.018433,153497.84375,155094.828125,191221.421875,231962.484375,157901.046875,159352.03125,142249.90625,142979.5625,0.0
1713490418.0204153,153455.546875,155060.5,191188.609375,231946.828125,157869.390625,159322.890625,142209.765625,142953.53125,0.0
1713490418.0241065,153462.4375,155075.78125,191183.421875,231993.234375,157921.703125,159336.921875,142300.0625,142972.671875,0.0
1713490418.034698,153456.171875,155072.390625,191174.5625,231974.46875,157909.71875,159323.15625,142300.875,142961.40625,0.0
1713490418.0347223,153473.078125,155090.8125,191190.84375,231922.96875,157870.5625,159326.90625,142222.640625,142954.25,0.0
1713490418.0454774,153478.53125,155076.5,191188.6875,231923.40625,157854.109375,159322.4375,142186.25,142949.6875,0.0
1713490418.0454948,153468.6875,155066.484375,191181.71875,231991.890625,157908.734375,159328.25,142272.703125,142974.90625,0.0
1713490418.054064,153486.125,155085.265625,191177.78125,231972.578125,157920.09375,159339.6875,142313.03125,142979.203125,0.0
1713490418.0541103,153506.328125,155127.734375,191218.28125,231953.546875,157919.015625,159381.453125,142282.625,143010.3125,0.0
1713490418.0541332,153468.78125,155080.515625,191196.734375,231921.265625,157876.640625,159357.3125,142218.53125,142987.328125,0.0
1713490418.0584025,153458.046875,155089.546875,191176.359375,231951.84375,157898.625,159347.375,142256.875,142971.953125,0.0
1713490418.0584157,153470.84375,155105.5625,191175.828125,231972.046875,157926.53125,159358.640625,142311.421875,142985.453125,0.0
1713490418.0740368,153453.3125,155103.765625,191176.625,231927.171875,157890.578125,159349.265625,142250.890625,142982.859375,0.0
1713490418.074067,153469.671875,155079.1875,191179.484375,231893.375,157851.78125,159343.890625,142183.125,142971.875,0.0
1713490418.074082,153475.75,155092.859375,191171.890625,231924.03125,157876.90625,159344.703125,142224.875,142972.3125,0.0
1713490418.077142,153464.21875,155105.734375,191166.96875,231951.9375,157917.859375,159359.546875,142304.890625,142992.4375,0.0
1713490418.0771685,153415.765625,155053.609375,191143.984375,231889.171875,157871.546875,159330.3125,142253.921875,142977.953125,0.0
1713490418.0791345,153405.75,155017.21875,191130.484375,231833.109375,157812.078125,159302.140625,142154.234375,142951.75,0.0
1713490418.1253948,153429.890625,155025.1875,191137.015625,231889.4375,157836.84375,159301.96875,142174.890625,142961.765625,0.0
1713490418.1514816,153459.390625,155070.421875,191152.125,231941.828125,157900.6875,159337.640625,142278.421875,142994.75,0.0
1713490418.1514957,153435.4375,155064.25,191138.984375,231878.703125,157868.6875,159327.890625,142248.5625,142979.109375,0.0
1713490418.151502,153428.1875,155028.21875,191137.203125,231845.171875,157819.78125,159308.21875,142160.3125,142969.28125,0.0
1713490418.2059395,153441.875,155045.125,191145.59375,231873.609375,157840.25,159319.84375,142178.5625,142988.859375,0.0
1713490418.2059865,153421.75,155053.875,191128.96875,231907.40625,157881.28125,159328.515625,142260.8125,142992.96875,0.0
1713490418.2060091,153385.453125,155036.171875,191102.59375,231861.453125,157843.828125,159304.375,142226.125,142962.125,0.0
1713490418.2060285,153388.5,155041.90625,191109.03125,231809.78125,157801.796875,159305.359375,142142.703125,142952.734375,0.0
1713490418.232061,153433.921875,155052.265625,191132.640625,231838.03125,157819.953125,159316.8125,142152.09375,142977.671875,0.0
1713490418.2320733,153431.234375,155084.09375,191136.75,231917.859375,157889.421875,159357.65625,142258.84375,143008.609375,0.0
1713490418.256658,153417.90625,155046.28125,191116.1875,231892.75,157875.46875,159333.078125,142267.875,143007.8125,0.0
1713490418.277744,153412.09375,155032.515625,191110.015625,231798.328125,157817.453125,159324.671875,142179.546875,142976.6875,0.0
1713490418.2803245,153406.46875,155041.0,191116.90625,231805.390625,157809.40625,159332.546875,142154.59375,142980.8125,0.0
1713490418.282823,153400.46875,155046.28125,191103.671875,231856.265625,157855.0,159334.59375,142231.9375,142994.75,0.0
1713490418.2852752,153395.109375,155027.0625,191090.265625,231857.34375,157864.03125,159332.546875,142266.890625,143000.484375,0.0
1713490418.290321,153420.0625,155064.4375,191119.140625,231821.125,157843.5625,159351.5,142214.328125,143005.578125,0.0
1713490418.2928421,153426.21875,155101.0,191139.703125,231819.4375,157836.3125,159368.21875,142176.140625,143014.6875,0.0
1713490418.295264,153385.453125,155049.953125,191094.8125,231841.609375,157843.640625,159330.125,142208.6875,143004.671875,0.0
1713490418.2977643,153403.0625,155063.71875,191089.453125,231844.28125,157859.109375,159334.328125,142256.875,142994.125,0.0
1713490418.3002918,153414.15625,155039.671875,191095.625,231796.359375,157824.875,159332.265625,142205.03125,142995.5625,0.0
1713490418.302744,153373.921875,154996.21875,191090.34375,231778.921875,157790.53125,159316.0,142134.75,142995.375,0.0
1713490418.305293,153359.96875,155002.5625,191067.90625,231789.296875,157803.234375,159297.40625,142163.625,142984.109375,0.0
1713490418.3077676,153379.734375,155030.546875,191061.375,231795.734375,157833.546875,159303.65625,142231.40625,142986.890625,0.0
1713490418.3102608,153351.578125,154988.796875,191046.890625,231744.953125,157791.796875,159280.953125,142181.15625,142972.9375,0.0
1713490418.3127751,153351.390625,154985.125,191054.40625,231710.984375,157757.1875,159283.359375,142108.015625,142967.125,0.0
1713490418.3152692,153402.890625,155035.109375,191087.578125,231782.5,157811.8125,159319.125,142168.453125,143005.84375,0.0
1713490418.3177333,153379.28125,155018.296875,191059.859375,231800.203125,157837.125,159316.359375,142239.265625,143006.203125,0.0
1713490418.320269,153376.25,155010.25,191060.484375,231768.109375,157820.9375,159315.28125,142223.890625,143004.765625,0.0
1713490418.322775,153380.0,155030.8125,191079.625,231752.640625,157790.890625,159322.265625,142149.0625,143003.421875,0.0
1713490418.325307,153351.125,155027.0625,191055.84375,231740.3125,157787.140625,159316.265625,142143.25,142994.046875,0.0
1713490418.3278265,153343.34375,155016.328125,191042.6875,231782.859375,157836.671875,159325.296875,142234.171875,143015.5,0.0
1713490418.3302512,153363.015625,155032.875,191041.796875,231756.390625,157823.53125,159328.421875,142226.921875,143008.609375,0.0
1713490418.3327668,153346.03125,155021.328125,191043.40625,231700.34375,157784.1875,159335.578125,142154.515625,143008.4375,0.0
1713490418.3352652,153366.140625,155014.546875,191049.125,231725.546875,157776.140625,159315.46875,142135.28125,143004.859375,0.0
1713490418.3403525,153361.3125,155016.0625,191031.609375,231759.890625,157815.03125,159311.703125,142209.9375,143009.234375,0.0
1713490418.3427577,153353.890625,155022.859375,191032.59375,231757.65625,157821.65625,159313.765625,142234.4375,143019.34375,0.0
1713490418.3452463,153318.671875,155005.6875,191025.171875,231675.9375,157768.71875,159305.625,142151.5625,142997.796875,0.0
1713490418.3477588,153335.921875,154967.15625,191022.578125,231682.8125,157747.890625,159290.421875,142110.96875,142995.921875,0.0
1713490418.355268,153335.484375,155002.03125,191019.625,231730.46875,157797.25,159304.203125,142182.21875,143007.265625,0.0
1713490418.3553145,153342.453125,155036.265625,191025.53125,231739.40625,157817.984375,159320.015625,142229.703125,143015.140625,0.0
1713490418.355337,153357.375,155012.75,191032.59375,231692.296875,157780.609375,159320.65625,142167.5625,143008.796875,0.0
1713490418.3553557,153369.984375,155019.375,191035.0,231665.65625,157754.0625,159323.234375,142113.65625,143001.109375,0.0
1713490418.355372,153352.375,155031.625,191029.734375,231726.53125,157796.53125,159326.1875,142176.140625,143016.65625,0.0
1713490418.3553777,153313.390625,154994.421875,191002.734375,231729.3125,157805.375,159315.015625,142223.890625,143016.390625,0.0
1713490418.3553827,153333.328125,155006.9375,191016.765625,231669.859375,157778.5625,159322.53125,142179.453125,143014.875,0.0
1713490418.355388,153332.703125,155020.625,191026.0625,231652.59375,157753.96875,159325.5625,142120.984375,143024.171875,0.0
1713490418.3578873,153325.46875,154997.546875,191015.421875,231703.640625,157784.015625,159323.515625,142171.765625,143031.5,0.0
1713490418.3603618,153350.859375,155021.609375,191019.453125,231737.171875,157821.5625,159332.625,142242.75,143040.890625,0.0
1713490418.3628953,153375.984375,155019.09375,191024.546875,231700.421875,157795.1875,159330.65625,142198.59375,143041.421875,0.0
1713490418.373567,153367.3125,155014.453125,191029.28125,231666.0,157767.65625,159336.390625,142139.578125,143045.71875,0.0
1713490418.3735795,153333.78125,154998.984375,191001.390625,231661.8125,157765.421875,159319.671875,142154.953125,143022.375,0.0
1713490418.3735857,153321.265625,155064.25,191014.796875,231725.828125,157826.84375,159349.53125,142249.453125,143051.96875,0.0
1713490418.3735912,153294.078125,154999.703125,190985.203125,231661.0,157788.484375,159327.796875,142217.546875,143039.1875,0.0
1713490418.3735962,153289.875,154959.375,190973.765625,231598.140625,157725.8125,159299.015625,142118.125,143007.453125,0.0
1713490418.3736012,153322.875,154963.21875,190978.328125,231635.078125,157737.78125,159301.25,142125.625,143013.4375,0.0
1713490418.373606,153358.28125,155022.234375,190997.0,231695.515625,157809.140625,159340.140625,142232.46875,143045.8125,0.0
1713490418.3736165,153295.25,155000.5,190970.09375,231653.578125,157782.140625,159322.265625,142223.625,143033.921875,0.0
1713490418.3736353,153280.046875,154949.8125,190956.421875,231588.9375,157718.46875,159282.734375,142123.484375,143013.0,0.0
1713490418.373648,153307.3125,154947.3125,190959.640625,231615.046875,157709.984375,159272.8125,142095.40625,143004.671875,0.0
1713490418.3736608,153328.5,154995.40625,190971.171875,231660.90625,157774.625,159299.8125,142187.765625,143026.140625,0.0
1713490418.3736749,153342.453125,155032.0625,190988.15625,231675.3125,157794.109375,159319.125,142217.8125,143043.484375,0.0
1713490418.3765588,153317.78125,154999.96875,190980.375,231600.65625,157743.234375,159307.78125,142141.71875,143027.296875,0.0
1713490418.376593,153327.078125,154967.0625,190988.0625,231621.75,157735.46875,159302.40625,142119.640625,143045.53125,0.0
1713490418.3766088,153332.171875,154991.390625,190987.796875,231675.390625,157794.46875,159325.65625,142212.625,143075.578125,0.0
1713490418.3797312,153312.671875,154982.171875,190961.15625,231643.484375,157780.34375,159313.234375,142229.609375,143041.421875,0.0
1713490418.3797638,153305.171875,154988.96875,190967.765625,231597.078125,157740.921875,159311.078125,142162.5625,143037.140625,0.0
1713490418.3822503,153331.90625,154987.359375,190983.328125,231602.4375,157731.0,159321.8125,142124.921875,143052.609375,0.0
1713490418.3822827,153324.125,154995.3125,190971.890625,231637.046875,157771.765625,159323.234375,142190.265625,143061.09375,0.0
1713490418.38532,153345.84375,155023.75,190980.5625,231668.15625,157810.390625,159347.921875,142259.296875,143076.921875,0.0
1713490418.3853536,153322.78125,155019.1875,190976.890625,231612.625,157775.15625,159341.84375,142203.59375,143066.734375,0.0
1713490418.3853688,153287.015625,154982.171875,190965.53125,231586.171875,157734.390625,159322.171875,142132.421875,143062.890625,0.0
1713490418.387854,153317.328125,154998.984375,190976.625,231637.21875,157777.03125,159337.09375,142196.625,143083.09375,0.0
1713490418.3903198,153328.328125,155019.453125,190970.28125,231659.5625,157801.0,159333.53125,142250.078125,143081.296875,0.0
1713490418.3927789,153325.203125,155042.34375,190975.015625,231623.1875,157777.65625,159340.59375,142211.015625,143078.703125,0.0
1713490418.3952742,153339.59375,155015.171875,190977.0625,231577.40625,157733.3125,159327.359375,142133.765625,143065.921875,0.0
1713490418.3978565,153327.96875,155002.46875,190965.09375,231604.140625,157751.375,159334.421875,142168.28125,143072.546875,0.0
1713490418.400312,153331.984375,155001.390625,190963.75,231656.265625,157798.671875,159331.375,142252.859375,143092.921875,0.0
1713490418.4028232,153308.296875,155001.3125,190947.921875,231583.390625,157764.875,159321.09375,142216.46875,143074.15625,0.0
1713490418.4058216,153266.015625,154945.34375,190919.765625,231509.28125,157694.78125,159291.40625,142114.28125,143030.609375,0.0
1713490418.4058323,153301.140625,154962.859375,190935.765625,231564.265625,157713.375,159298.46875,142126.875,143049.390625,0.0
1713490418.4077985,153323.234375,155007.125,190942.828125,231606.8125,157768.1875,159320.203125,142222.015625,143066.28125,0.0
1713490418.4115543,153331.90625,155004.96875,190949.703125,231591.4375,157768.28125,159325.921875,142232.296875,143075.578125,0.0
1713490418.4221625,153308.65625,154976.546875,190938.71875,231529.9375,157713.375,159306.609375,142140.828125,143057.78125,0.0
1713490418.4222093,153339.234375,154962.234375,190944.796875,231556.125,157718.65625,159312.15625,142139.046875,143073.703125,0.0
1713490418.424638,153312.140625,154967.6875,190919.21875,231580.984375,157752.265625,159307.953125,142209.671875,143071.015625,0.0
1713490418.424651,153270.65625,154963.484375,190900.359375,231551.828125,157745.75,159309.46875,142227.90625,143061.90625,0.0
1713490418.4315784,153282.28125,154983.96875,190921.28125,231511.421875,157723.03125,159337.015625,142168.546875,143068.34375,0.0
1713490418.4377744,153285.953125,154969.296875,190911.359375,231516.515625,157693.703125,159310.1875,142111.5,143055.28125,0.0
1713490418.443408,153315.890625,154988.875,190921.640625,231591.078125,157752.984375,159313.3125,142196.171875,143084.703125,0.0
1713490418.4434223,153280.765625,154953.390625,190893.390625,231558.546875,157741.0,159287.125,142217.265625,143061.625,0.0
1713490418.4453115,153258.859375,154958.21875,190889.8125,231489.703125,157697.015625,159283.8125,142146.28125,143043.921875,0.0
1713490418.4565368,153297.03125,154958.84375,190920.203125,231513.296875,157706.234375,159313.9375,142130.28125,143079.78125,0.0
1713490418.4608665,153291.578125,154963.484375,190905.71875,231555.046875,157736.625,159309.296875,142182.046875,143080.671875,0.0
1713490418.4608898,153298.28125,154973.859375,190895.171875,231551.5625,157749.953125,159301.78125,142226.390625,143073.609375,0.0
1713490418.463374,153264.9375,154947.75,190882.03125,231489.96875,157705.0625,159285.515625,142168.640625,143060.203125,0.0
1713490418.463388,153248.390625,154923.171875,190874.78125,231463.765625,157667.96875,159274.515625,142103.375,143054.75,0.0
1713490418.4878616,153286.390625,154933.71875,190881.40625,231525.453125,157709.265625,159285.78125,142155.21875,143076.46875,0.0
1713490418.5640912,153294.34375,154951.59375,190883.109375,231565.328125,157755.3125,159305.0,142239.53125,143098.921875,0.0
1713490418.5641415,153276.109375,154964.46875,190892.3125,231511.6875,157737.703125,159320.375,142212.890625,143098.921875,0.0
1713490418.5641649,153265.203125,154948.203125,190885.515625,231463.40625,157684.6875,159305.453125,142123.484375,143074.0625,0.0
1713490418.5641847,153268.59375,154926.5625,190866.828125,231492.921875,157687.0,159281.578125,142133.9375,143066.453125,0.0
1713490418.5642045,153262.703125,154930.140625,190853.859375,231523.046875,157727.234375,159289.171875,142215.03125,143078.53125,0.0
1713490418.5642233,153239.546875,154928.359375,190851.359375,231488.796875,157707.75,159284.078125,142187.859375,143072.546875,0.0
1713490418.5642424,153237.046875,154913.0625,190854.765625,231435.25,157666.171875,159279.171875,142111.421875,143063.328125,0.0
1713490418.5642648,153227.65625,154911.453125,190847.78125,231458.140625,157672.078125,159280.140625,142118.75,143068.15625,0.0
1713490418.5884647,153203.25,154915.75,190821.234375,231480.125,157703.28125,159277.375,142192.953125,143070.390625,0.0
1713490418.5884876,153220.140625,154941.859375,190832.40625,231468.421875,157707.03125,159291.59375,142206.1875,143083.0,0.0
1713490418.6040888,153251.078125,154922.71875,190845.375,231425.40625,157664.109375,159283.28125,142125.265625,143076.390625,0.0
1713490418.606609,153232.125,154904.390625,190835.890625,231439.0,157652.3125,159272.375,142102.390625,143072.71875,0.0
1713490418.609141,153220.140625,154925.3125,190828.828125,231481.296875,157703.359375,159287.75,142190.625,143084.34375,0.0
1713490418.6116347,153220.328125,154934.4375,190830.171875,231477.71875,157711.5,159294.984375,142218.34375,143091.40625,0.0
1713490418.6141243,153212.359375,154920.3125,190832.140625,231417.453125,157668.3125,159287.84375,142142.171875,143080.9375,0.0
1713490418.6165595,153203.25,154896.53125,190821.234375,231406.546875,157635.15625,159265.21875,142087.0,143064.140625,0.0
1713490418.619076,153221.3125,154916.90625,190825.4375,231461.09375,157688.25,159278.984375,142171.9375,143083.890625,0.0
1713490418.6215646,153230.6875,154929.15625,190827.046875,231466.625,157706.578125,159286.234375,142217.71875,143093.90625,0.0
