timestamps,Fz,C3,Cz,C4,Pz,PO7,Oz,PO8,stim
1713489601.4446073,134984.34375,131355.484375,172384.171875,192235.296875,129345.171875,141999.203125,123511.0078125,120419.3125,0.0
1713489601.4446135,135025.375,131454.90625,172375.234375,192406.15625,129651.296875,142078.25,123603.3671875,120485.3828125,0.0
1713489601.4470744,135035.296875,131521.34375,172347.96875,192468.5625,129808.296875,142124.296875,123651.734375,120505.234375,0.0
1713489601.449608,134998.546875,131447.484375,172347.25,192305.484375,129555.453125,142072.25,123581.28125,120447.296875,0.0
1713489601.4526503,134983.71875,131353.703125,172379.4375,192201.59375,129320.3125,142004.21875,123514.671875,120416.9921875,0.0
1713489601.4526594,135026.09375,131434.875,172372.453125,192368.78125,129606.2421875,142059.46875,123584.0546875,120474.5703125,0.0
1713489601.4545815,135047.8125,131514.359375,172353.0625,192458.28125,129796.671875,142114.453125,123642.34375,120506.3984375,0.0
1713489601.4571583,135019.390625,131478.15625,172345.546875,192339.0,129631.984375,142082.71875,123590.84375,120460.6171875,0.0
1713489601.4596455,134980.9375,131356.5625,172367.8125,192170.734375,129302.96875,141993.046875,123490.7109375,120399.46875,0.0
1713489601.462141,135021.984375,131431.484375,172368.4375,192324.796875,129561.359375,142055.984375,123573.1484375,120462.140625,0.0
1713489601.4646537,135051.125,131520.4375,172353.859375,192438.34375,129787.2890625,142125.71875,123652.5390625,120508.9921875,0.0
1713489601.4671252,135033.25,131508.375,172340.1875,192364.390625,129704.6796875,142105.875,123615.2578125,120475.375,0.0
1713489601.4696028,134982.015625,131365.5,172359.3125,192155.8125,129316.46875,141997.875,123489.1953125,120397.859375,0.0
1713489601.4727223,135015.0,131411.71875,172367.1875,192279.90625,129509.5,142042.578125,123553.4765625,120453.46875,0.0
1713489601.472742,135042.0,131496.578125,172344.46875,192405.078125,129753.40625,142108.203125,123629.7421875,120499.15625,0.0
1713489601.474629,135031.28125,131512.65625,172324.265625,192373.78125,129751.078125,142118.203125,123634.5703125,120487.796875,0.0
1713489601.4776545,134981.390625,131374.984375,172345.734375,192155.359375,129356.4375,142022.09375,123529.421875,120419.40625,0.0
1713489601.4776676,135000.78125,131383.03125,172353.765625,192223.9375,129448.078125,142023.53125,123539.4375,120440.859375,0.0
1713489601.489052,135037.625,131479.9375,172338.21875,192366.8125,129719.0703125,142098.359375,123615.2578125,120487.171875,0.0
1713489601.4890804,135045.578125,131529.734375,172324.453125,192383.984375,129791.9375,142134.578125,123645.296875,120495.9375,0.0
1713489601.4965124,135004.71875,131415.03125,172350.109375,192179.0625,129424.4765625,142054.90625,123548.9140625,120434.15625,0.0
1713489601.496525,135005.796875,131384.09375,172363.515625,192191.390625,129405.5234375,142027.46875,123527.3671875,120437.28125,0.0
1713489601.50396,135034.9375,131471.71875,172341.875,192342.84375,129692.78125,142095.046875,123612.0390625,120491.8203125,0.0
1713489601.5039775,135046.109375,131528.9375,172320.6875,192385.140625,129811.25,142131.53125,123645.2109375,120503.984375,0.0
1713489601.5063388,134999.09375,131424.15625,172327.75,192186.828125,129483.390625,142054.640625,123552.578125,120436.3046875,0.0
1713489601.5063508,134993.28125,131369.171875,172355.109375,192141.859375,129359.03125,142010.921875,123513.15625,120425.484375,0.0
1713489601.515896,135028.5,131460.265625,172337.234375,192299.484375,129651.65625,142075.109375,123589.8671875,120477.15625,0.0
1713489601.541482,135053.8125,131538.859375,172322.921875,192374.671875,129818.7578125,142135.015625,123651.9140625,120505.5,0.0
1713489601.541505,135019.109375,131467.25,172323.734375,192217.234375,129567.796875,142083.4375,123583.0703125,120449.625,0.0
1713489601.5671892,134988.265625,131367.90625,172344.46875,192104.578125,129329.2578125,142015.484375,123519.234375,120414.7578125,0.0
1713489601.5952508,135023.234375,131449.0,172333.203125,192265.875,129616.7890625,142078.515625,123601.84375,120474.7421875,0.0
1713489601.59527,135045.046875,131525.359375,172311.65625,192353.484375,129806.5078125,142133.59375,123659.8671875,120503.4453125,0.0
1713489601.5952833,135017.859375,131480.5625,172302.8125,192234.671875,129636.9921875,142093.890625,123595.8515625,120453.5546875,0.0
1713489601.595291,134979.15625,131356.921875,172329.640625,192070.875,129311.015625,142002.421875,123493.9296875,120396.78125,0.0
1713489601.6195426,135025.46875,131438.015625,172340.546875,192231.359375,129575.75,142069.125,123583.4296875,120468.7578125,0.0
1713489601.6195552,135053.8125,131524.90625,172321.765625,192339.28125,129794.6171875,142132.875,123650.6640625,120506.9296875,0.0
1713489601.6195612,135026.8125,131504.34375,172294.9375,192255.859375,129703.421875,142110.25,123612.484375,120469.0234375,0.0
1713489601.6332989,134972.984375,131360.140625,172310.40625,192049.6875,129318.078125,142005.5625,123497.7734375,120398.125,0.0
1713489601.6358707,135002.390625,131405.375,172317.5625,192171.453125,129507.7109375,142043.375,123553.3828125,120448.3671875,0.0
1713489601.6384048,135034.140625,131499.515625,172302.984375,192306.1875,129764.6640625,142117.578125,123639.125,120502.1953125,0.0
1713489601.6409092,135037.0,131524.375,172294.5,192284.734375,129768.421875,142133.859375,123646.4609375,120496.0234375,0.0
1713489601.6433754,134989.515625,131389.1875,172317.03125,192068.90625,129377.359375,142036.484375,123543.375,120425.84375,0.0
1713489601.6459165,135005.890625,131396.34375,172325.609375,192134.53125,129465.0625,142037.75,123563.1328125,120450.25,0.0
1713489601.6484437,135044.59375,131492.90625,172309.609375,192280.625,129739.2734375,142103.015625,123632.0625,120498.53125,0.0
1713489601.6508696,135044.421875,131527.78125,172283.765625,192283.484375,129789.4375,142119.546875,123634.296875,120488.15625,0.0
1713489601.6533897,134983.265625,131390.71875,172284.9375,192058.53125,129400.3359375,142019.421875,123517.7109375,120403.21875,0.0
1713489601.6558032,134987.734375,131366.390625,172301.921875,192071.953125,129388.625,142009.578125,123518.0703125,120414.484375,0.0
1713489601.658383,135025.640625,131461.25,172289.21875,192233.0625,129685.8125,142089.0625,123610.7890625,120478.765625,0.0
1713489601.6608756,135036.734375,131519.8125,172270.453125,192278.203125,129804.3671875,142128.671875,123646.7265625,120494.59375,0.0
1713489601.6633968,134993.28125,131419.40625,172280.28125,192084.828125,129479.546875,142053.03125,123554.3671875,120428.8828125,0.0
1713489601.6658833,134989.34375,131363.796875,172308.984375,192044.3125,129358.8515625,142009.140625,123521.375,120425.2109375,0.0
1713489601.6683557,135032.96875,131460.09375,172301.65625,192214.640625,129661.046875,142081.46875,123607.296875,120487.796875,0.0
1713489601.6708949,135040.03125,131520.171875,172270.890625,192271.0625,129809.640625,142121.609375,123647.53125,120499.0625,0.0
1713489601.673323,134992.828125,131439.34375,172258.28125,192103.5,129551.7890625,142062.234375,123567.2421875,120433.0859375,0.0
1713489601.67583,134966.640625,131341.71875,172279.75,191990.765625,129314.1484375,141992.6875,123494.375,120397.859375,0.0
1713489601.6783164,135013.75,131431.84375,172280.375,192160.90625,129609.0078125,142066.171875,123588.609375,120469.0234375,0.0
1713489601.680816,135033.78125,131505.78125,172259.0,192248.53125,129796.9453125,142118.296875,123641.71875,120495.84375,0.0
1713489601.6833296,135008.484375,131468.140625,172254.703125,192136.40625,129635.7421875,142089.515625,123598.265625,120456.953125,0.0
1713489601.68643,134978.34375,131352.71875,172286.546875,191981.015625,129319.6015625,142009.40625,123516.375,120410.640625,0.0
1713489601.686448,135007.3125,131412.890625,172275.8125,192118.34375,129560.015625,142050.34375,123574.3984375,120456.0625,0.0
1713489601.6889112,135012.859375,131476.625,172236.109375,192205.609375,129756.4453125,142087.1875,123611.9453125,120471.9765625,0.0
1713489601.6889212,135006.328125,131478.15625,172229.234375,192143.921875,129688.046875,142091.65625,123606.2265625,120456.953125,0.0
1713489601.6927228,134965.65625,131347.171875,172254.53125,191949.734375,129314.0546875,142000.640625,123502.6953125,120394.4609375,0.0
1713489601.6927357,135004.625,131399.921875,172265.625,192074.265625,129504.4921875,142041.671875,123554.28125,120442.6484375,0.0
1713489601.6927416,135037.265625,131491.203125,172250.859375,192200.328125,129750.71875,142111.234375,123633.140625,120489.9453125,0.0
1713489601.6927478,135031.09375,131510.875,172236.65625,192174.765625,129753.9375,142121.96875,123632.3359375,120476.4453125,0.0
1713489601.6982863,134982.640625,131373.8125,172257.65625,191958.484375,129357.6015625,142020.046875,123513.6015625,120398.8359375,0.0
1713489601.6982992,135005.078125,131387.3125,172270.984375,192034.390625,129456.75,142032.015625,123545.3359375,120433.2578125,0.0
1713489601.6983051,135039.953125,131481.734375,172256.59375,192178.34375,129729.265625,142105.609375,123628.3125,120489.765625,0.0
1713489601.7014556,135037.890625,131517.765625,172231.828125,192183.171875,129789.2578125,142124.109375,123639.9296875,120486.1015625,0.0
1713489601.7014682,134980.5,131384.546875,172237.984375,191961.890625,129407.7578125,142020.84375,123523.5234375,120409.2109375,0.0
1713489601.7039201,134983.0,131357.28125,172249.25,191976.109375,129395.4140625,142004.75,123524.6875,120422.3515625,0.0
1713489601.7039328,135024.390625,131454.8125,172234.953125,192136.3125,129686.171875,142080.5625,123612.21875,120482.8828125,0.0
1713489601.7058597,135038.609375,131514.453125,172216.71875,192181.5625,129801.328125,142114.0,123637.609375,120494.0546875,0.0
1713489601.7083712,134985.953125,131406.71875,172217.875,191978.421875,129469.7109375,142032.203125,123539.2578125,120417.6171875,0.0
1713489601.710894,134980.5,131352.359375,172247.296875,191935.59375,129351.7890625,141996.265625,123514.2265625,120412.609375,0.0
1713489601.7171583,135026.0,131449.625,172241.125,192105.109375,129654.4296875,142073.0625,123602.2890625,120474.03125,0.0
1713489601.7214377,135033.25,131509.265625,172210.71875,192162.96875,129798.9140625,142109.359375,123631.703125,120479.3984375,0.0
1713489601.721454,134993.71875,131433.53125,172206.4375,191999.34375,129543.921875,142050.796875,123559.5546875,120420.8359375,0.0
1713489601.7289207,134969.5,131336.890625,172228.78125,191888.9375,129309.9453125,141986.953125,123500.4609375,120390.6171875,0.0
1713489601.7289424,135011.96875,131425.046875,172223.59375,192055.3125,129602.0390625,142059.5625,123586.46875,120456.5078125,0.0
1713489601.7346113,135036.546875,131507.203125,172207.953125,192149.8125,129796.2265625,142118.484375,123646.8125,120492.8984375,0.0
1713489601.738907,134998.828125,131456.421875,172189.0,192023.40625,129620.0078125,142070.46875,123582.7109375,120439.34375,0.0
1713489601.738927,134959.75,131337.875,172214.75,191860.765625,129299.75,141986.25,123494.734375,120388.9140625,0.0
1713489601.7420716,135004.1875,131416.8125,172223.15625,192017.234375,129557.9609375,142048.375,123570.375,120452.5703125,0.0
1713489601.7533734,135036.734375,131502.734375,172210.625,192128.265625,129777.6328125,142111.0625,123635.4609375,120491.5546875,0.0
1713489601.7577279,135019.390625,131490.21875,172195.875,192055.046875,129695.375,142096.65625,123608.375,120458.5625,0.0
1713489601.7577689,134969.046875,131351.640625,172215.546875,191855.765625,129318.4375,142000.8125,123500.6328125,120390.703125,0.0
1713489601.7596998,134997.921875,131396.4375,172219.21875,191977.171875,129507.8046875,142040.78125,123557.140625,120441.578125,0.0
1713489601.7701647,135027.96875,131482.09375,172200.171875,192102.875,129751.078125,142102.921875,123628.3125,120486.546875,0.0
1713489601.7701855,135032.171875,131507.390625,172192.125,192084.28125,129756.265625,142115.703125,123631.171875,120481.09375,0.0
1713489601.772044,134979.953125,131371.671875,172209.65625,191866.578125,129360.3671875,142018.4375,123519.0546875,120408.8515625,0.0
1713489601.7838645,134985.046875,131376.234375,172209.828125,191929.875,129451.7421875,142027.46875,123550.96875,120439.7890625,0.0
1713489601.783876,135011.0625,131462.953125,172184.34375,192066.3125,129719.15625,142093.796875,123631.3515625,120488.15625,0.0
1713489601.7864485,135025.640625,131513.921875,172174.953125,192081.15625,129786.484375,142125.453125,123651.109375,120491.8203125,0.0
1713489601.786469,134977.625,131390.359375,172189.265625,191865.0625,129410.6171875,142033.1875,123537.46875,120413.4140625,0.0
1713489601.8197353,134979.515625,131363.359375,172204.46875,191879.0,129396.21875,142016.203125,123526.3828125,120416.2734375,0.0
1713489601.822173,135012.953125,131455.4375,172190.15625,192037.34375,129687.8671875,142088.171875,123610.4296875,120473.3125,0.0
1713489601.8247736,135042.453125,131528.3125,172188.8125,192097.421875,129820.1875,142134.21875,123655.4921875,120501.65625,0.0
1713489601.8271828,134999.53125,131427.28125,172197.046875,191903.0625,129497.4296875,142063.40625,123569.296875,120435.9453125,0.0
1713489601.8296807,134981.75,131358.53125,172210.71875,191846.46875,129361.7109375,142012.53125,123520.0390625,120416.3671875,0.0
1713489601.8321345,135019.109375,131450.96875,172198.203125,192011.859375,129660.2421875,142082.625,123609.890625,120479.3984375,0.0
1713489601.8352456,135038.15625,131520.890625,172178.453125,192082.9375,129817.8671875,142129.5625,123653.078125,120499.421875,0.0
1713489601.8352587,134997.5625,131442.65625,172171.65625,191918.875,129559.390625,142066.265625,123567.515625,120434.9609375,0.0
1713489601.8371072,134967.078125,131344.40625,172192.296875,191804.265625,129320.40625,141999.5625,123503.046875,120402.234375,0.0
1713489601.8396783,135008.03125,131431.75,172188.734375,191968.59375,129610.7109375,142067.34375,123590.3125,120466.875,0.0
1713489601.8427484,135033.59375,131513.296875,172173.53125,192062.296875,129806.78125,142125.71875,123651.734375,120502.1953125,0.0
1713489601.842758,135009.734375,131475.375,172168.875,191950.359375,129646.7421875,142096.9375,123608.7265625,120463.484375,0.0
1713489601.844662,134973.96875,131352.984375,172193.203125,191788.53125,129323.0,142009.9375,123517.8046875,120409.8359375,0.0
1713489601.8477075,135007.9375,131418.15625,172189.171875,191934.078125,129570.65625,142063.765625,123589.7734375,120466.34375,0.0
1713489601.8477376,135033.0625,131500.6875,172168.875,192039.84375,129788.359375,142123.484375,123653.34375,120503.359375,0.0
1713489601.853326,135018.3125,131494.515625,172158.234375,191971.1875,129712.09375,142113.375,123629.921875,120476.890625,0.0
1713489601.8601532,134969.9375,131358.171875,172181.21875,191770.203125,129332.1171875,142012.984375,123518.3359375,120406.4375,0.0
1713489601.8601658,135002.484375,131406.1875,172190.515625,191893.671875,129521.484375,142050.53125,123576.0078125,120457.4921875,0.0
1713489601.8696575,135036.546875,131501.484375,172177.640625,192025.640625,129774.1484375,142122.59375,123654.7734375,120507.9140625,0.0
1713489601.8770363,135029.484375,131519.734375,172159.21875,191997.296875,129774.1484375,142130.375,123652.0,120492.71875,0.0
1713489601.877049,134978.890625,131381.6875,172177.28125,191778.0625,129375.8359375,142031.390625,123537.46875,120417.4375,0.0
1713489601.8770547,134994.4375,131390.0,172183.90625,191848.515625,129468.5546875,142041.859375,123563.4921875,120448.4609375,0.0
1713489601.87965,135018.21875,131468.9375,172154.84375,191982.984375,129728.28125,142098.8125,123630.8984375,120491.375,0.0
1713489601.883354,135027.703125,131514.8125,172140.0,191995.6875,129798.4609375,142131.0,123653.703125,120496.1171875,0.0
1713489601.9109583,134972.984375,131385.171875,172148.765625,191772.96875,129415.4453125,142032.828125,123537.3828125,120416.3671875,0.0
1713489601.936565,134972.71875,131358.171875,172162.4375,191782.984375,129399.0859375,142013.6875,123534.609375,120426.2890625,0.0
1713489601.9365852,135012.40625,131458.390625,172151.359375,191946.328125,129698.328125,142094.25,123632.0625,120491.109375,0.0
1713489601.9608305,135028.0625,131520.890625,172135.984375,191995.5,129820.8125,142141.71875,123672.8359375,120506.9296875,0.0
1713489601.9859397,134983.796875,131420.578125,172142.859375,191801.578125,129493.8515625,142066.796875,123570.015625,120432.3671875,0.0
1713489602.0021312,134971.546875,131356.109375,172160.921875,191751.15625,129361.3515625,142014.859375,123521.9140625,120415.5625,0.0
1713489602.0082986,135015.71875,131452.5,172152.34375,191923.265625,129663.640625,142085.390625,123607.7421875,120480.734375,0.0
1713489602.010872,135036.109375,131525.890625,172134.71875,191996.578125,129827.4296875,142136.890625,123662.90625,120507.828125,0.0
1713489602.0133247,134992.109375,131445.25,172126.859375,191828.3125,129570.4765625,142076.015625,123589.1484375,120445.6015625,0.0
1713489602.015824,134964.3125,131343.953125,172148.140625,191710.5625,129330.5078125,142005.828125,123519.0546875,120407.8671875,0.0
1713489602.0183704,135005.53125,131431.125,172143.046875,191877.75,129620.7265625,142077.796875,123607.1171875,120474.8359375,0.0
1713489602.0208397,135017.859375,131501.9375,172115.5,191963.578125,129805.4375,142127.5,123657.9921875,120499.6875,0.0
1713489602.0233612,134987.828125,131459.46875,172110.3125,191850.3125,129642.0,142095.765625,123616.8671875,120464.5546875,0.0
1713489602.025864,134954.5625,131342.34375,172139.734375,191692.0625,129324.15625,142013.6875,123526.921875,120416.3671875,0.0
1713489602.028367,134993.640625,131412.53125,172139.828125,191840.03125,129571.1875,142065.375,123591.5625,120471.4375,0.0
1713489602.0308044,135020.71875,131496.75,172120.515625,191951.15625,129790.2421875,142124.296875,123656.296875,120511.046875,0.0
1713489602.0333807,135004.28125,131489.15625,172106.296875,191881.234375,129713.078125,142109.984375,123629.2890625,120482.078125,0.0
1713489602.035884,134947.953125,131345.65625,172121.9375,191668.984375,129321.1171875,142004.84375,123512.8828125,120405.3671875,0.0
1713489602.0384312,134981.125,131394.828125,172129.71875,191792.8125,129515.9375,142046.234375,123573.7734375,120457.046875,0.0
1713489602.040882,135014.015625,131484.046875,172114.515625,191917.8125,129761.453125,142115.34375,123651.46875,120504.3359375,0.0
1713489602.043382,135014.28125,131513.015625,172104.5,191897.609375,129775.21875,142129.46875,123656.6484375,120495.6640625,0.0
1713489602.0457983,134958.40625,131371.046875,172122.921875,191671.9375,129368.59375,142021.921875,123531.3046875,120413.859375,0.0
1713489602.048296,134972.265625,131380.515625,172129.09375,191743.90625,129464.796875,142033.1875,123558.5703125,120444.9765625,0.0
1713489602.0507934,135019.203125,131487.8125,172126.140625,191900.203125,129747.7734375,142119.8125,123659.15625,120512.4765625,0.0
1713489602.0533187,135026.09375,131534.75,172108.796875,191918.171875,129820.9921875,142143.59375,123673.7265625,120511.7578125,0.0
1713489602.0558193,134962.15625,131394.734375,172109.515625,191685.890625,129423.21875,142036.671875,123542.390625,120419.40625,0.0
1713489602.0583167,134965.296875,131367.28125,172123.546875,191696.96875,129408.203125,142015.21875,123533.1796875,120425.75,0.0
1713489602.0608084,135008.828125,131467.6875,172116.3125,191859.25,129706.1953125,142097.015625,123635.640625,120495.6640625,0.0
1713489602.0633075,135021.625,131525.984375,172094.84375,191904.390625,129827.34375,142136.265625,123668.2734375,120506.3984375,0.0
1713489602.0658298,134970.03125,131414.765625,172095.5625,191702.96875,129493.3203125,142050.265625,123558.9296875,120430.671875,0.0
1713489602.0683038,134955.453125,131349.140625,172115.859375,191653.96875,129364.84375,142010.5625,123524.421875,120420.7421875,0.0
1713489602.0708084,134995.875,131443.1875,172105.671875,191822.328125,129664.4453125,142084.328125,123611.140625,120483.953125,0.0
1713489602.0733085,135011.609375,131508.8125,172082.328125,191890.890625,129818.8515625,142126.96875,123655.9375,120503.7109375,0.0
1713489602.0798035,134974.953125,131434.796875,172082.609375,191730.6875,129568.6875,142072.34375,123589.1484375,120447.296875,0.0
1713489602.079821,134953.21875,131339.578125,172111.03125,191616.6875,129326.84375,141999.203125,123510.9140625,120405.90625,0.0
1713489602.0798275,135002.125,131432.734375,172111.921875,191785.3125,129621.078125,142069.296875,123595.046875,120470.546875,0.0
1713489602.0798333,135034.140625,131517.9375,172100.484375,191882.140625,129816.8828125,142131.796875,123659.2421875,120506.21875,0.0
1713489602.0798388,135001.6875,131468.40625,172084.5625,191761.703125,129647.453125,142092.375,123606.3125,120456.59375,0.0
1713489602.079844,134969.671875,131347.625,172114.15625,191600.953125,129321.8359375,142007.25,123513.15625,120405.1875,0.0
1713489602.0832396,135004.8125,131419.328125,172111.5625,191753.75,129578.2578125,142062.6875,123587.0,120465.71875,0.0
1713489602.083253,135025.828125,131503.546875,172090.828125,191861.484375,129795.9609375,142126.34375,123658.9765625,120506.84375,0.0
1713489602.0832584,135014.015625,131500.5,172080.640625,191797.375,129727.203125,142119.734375,123636.8046875,120482.4375,0.0
1713489602.090691,134964.671875,131360.40625,172102.265625,191590.484375,129339.09375,142013.953125,123518.3359375,120409.5703125,0.0
1713489602.0907123,134991.75,131406.53125,172107.71875,191709.84375,129528.453125,142048.828125,123573.3203125,120458.0234375,0.0
1713489602.0907187,135010.890625,131486.015625,172080.453125,191826.609375,129763.859375,142105.0625,123637.1640625,120494.1484375,0.0
1713489602.0964277,135009.015625,131509.71875,172066.859375,191804.625,129772.359375,142119.375,123641.8984375,120487.7109375,0.0
1713489602.0964427,134961.453125,131375.609375,172088.953125,191590.484375,129378.4296875,142023.796875,123531.03125,120417.078125,0.0
1713489602.0983026,134982.453125,131387.578125,172102.0,191664.96875,129474.2734375,142037.75,123558.9296875,120450.25,0.0
1713489602.1008425,135020.546875,131484.859375,172091.71875,191817.21875,129756.625,142119.015625,123657.453125,120518.1953125,0.0
1713489602.1033297,135018.046875,131523.03125,172067.046875,191823.84375,129820.8125,142144.046875,123674.265625,120515.15625,0.0
1713489602.1063557,134962.796875,131391.15625,172073.125,191600.859375,129436.2734375,142044.71875,123551.7734375,120430.4921875,0.0
1713489602.1063857,134967.4375,131368.0,172088.6875,191613.109375,129423.578125,142034.078125,123552.046875,120441.6640625,0.0
1713489602.1083288,135005.796875,131467.328125,172075.359375,191766.078125,129712.6328125,142112.046875,123639.0390625,120497.90625,0.0
1713489602.1108184,135017.5,131524.375,172053.28125,191807.5625,129828.328125,142141.8125,123662.640625,120503.265625,0.0
1713489602.1572397,134975.484375,131419.234375,172061.40625,191614.1875,129501.3671875,142063.765625,123570.375,120436.390625,0.0
1713489602.160324,134963.234375,131349.40625,172078.75,191563.40625,129364.2109375,142009.21875,123519.9453125,120416.1875,0.0
1713489602.1603613,135005.703125,131443.546875,172069.546875,191734.796875,129666.3203125,142083.515625,123614.984375,120484.046875,0.0
1713489602.162304,135019.203125,131512.125,172046.296875,191800.328125,129824.5703125,142130.71875,123667.2890625,120508.0078125,0.0
1713489602.1646664,134972.71875,131428.171875,172033.96875,191628.9375,129559.8359375,142056.34375,123568.8515625,120432.9921875,0.0
1713489602.1671505,134947.859375,131331.890625,172059.171875,191520.578125,129324.0703125,141989.546875,123504.2109375,120400.71875,0.0
1713489602.169619,134992.828125,131421.46875,172056.5,191690.625,129617.234375,142058.3125,123593.890625,120469.921875,0.0
1713489602.1720457,135011.0625,131498.09375,172031.8125,191776.28125,129803.5625,142112.484375,123647.890625,120496.828125,0.0
1713489602.1746297,134989.25,131466.078125,172028.78125,191661.484375,129644.1484375,142089.953125,123608.375,120457.21875,0.0
1713489602.1771677,134953.578125,131347.890625,172057.203125,191497.78125,129321.296875,142004.9375,123510.7421875,120399.9140625,0.0
1713489602.1796575,134990.953125,131418.34375,172060.078125,191652.265625,129577.0,142060.90625,123587.6328125,120463.2109375,0.0
1713489602.182166,135022.609375,131508.546875,172049.609375,191771.1875,129807.5859375,142132.6875,123666.9296875,120513.3671875,0.0
1713489602.1845987,135009.546875,131498.71875,172039.328125,191704.21875,129732.5703125,142119.375,123637.875,120486.4609375,0.0
1713489602.1870584,134957.25,131351.28125,172055.15625,191495.890625,129343.0234375,142009.140625,123512.2578125,120407.6015625,0.0
1713489602.1895864,134984.421875,131395.546875,172058.28125,191610.609375,129524.703125,142045.25,123562.953125,120451.859375,0.0
1713489602.1920598,135003.296875,131479.3125,172030.03125,191729.15625,129764.1328125,142102.109375,123632.6015625,120490.5703125,0.0
1713489602.195933,135013.390625,131516.328125,172028.421875,191717.0,129778.171875,142126.34375,123652.09375,120496.1171875,0.0
1713489602.1959453,134966.359375,131382.21875,172050.6875,191503.140625,129387.1953125,142030.953125,123537.921875,120423.515625,0.0
1713489602.1959507,134976.921875,131381.859375,172054.265625,191565.71875,129468.375,142028.4375,123545.7890625,120442.46875,0.0
1713489602.195956,135007.21875,131475.03125,172035.125,191710.828125,129746.4296875,142101.9375,123634.8359375,120498.8828125,0.0
1713489602.195961,135014.46875,131519.09375,172018.9375,191721.46875,129811.609375,142130.640625,123659.6875,120503.0,0.0
1713489602.2014017,134962.609375,131388.921875,172028.515625,191499.734375,129428.765625,142032.015625,123538.8125,120417.8828125,0.0
1713489602.2014184,134966.8125,131363.53125,172046.65625,191511.8125,129410.2578125,142016.015625,123534.34375,120426.9140625,0.0
1713489602.2033415,135003.015625,131460.984375,172032.53125,191674.265625,129707.984375,142094.609375,123630.9921875,120492.0,0.0
1713489602.2058215,135009.734375,131514.1875,172005.625,191715.03125,129822.3359375,142123.3125,123656.0234375,120499.6875,0.0
1713489602.2082956,134963.953125,131408.6875,172010.09375,191519.140625,129492.6953125,142044.359375,123549.9921875,120424.40625,0.0
1713489602.2133455,134953.671875,131346.09375,172033.34375,191471.125,129366.625,142004.125,123518.3359375,120416.09375,0.0
1713489602.2164104,135000.609375,131450.4375,172031.46875,191649.59375,129679.4609375,142089.6875,123623.8359375,120496.0234375,0.0
1713489602.21642,135015.453125,131523.921875,172009.28125,191719.59375,129840.6640625,142138.6875,123674.4453125,120520.4296875,0.0
1713489602.2183409,134981.5625,131453.390625,172011.4375,191558.75,129591.484375,142082.53125,123602.828125,120464.015625,0.0
1713489602.2346032,134965.375,131363.625,172046.390625,191448.953125,129359.03125,142020.75,123536.6640625,120430.21875,0.0
1713489602.2376437,135006.0625,131448.921875,172040.84375,191611.5,129645.7578125,142083.875,123609.4453125,120484.4921875,0.0
1713489602.2376616,135024.5625,131523.125,172017.328125,191699.921875,129831.6328125,142135.90625,123660.8515625,120508.1875,0.0
1713489602.2439167,134994.171875,131477.609375,172006.0625,191583.15625,129665.25,142101.3125,123611.4140625,120462.5859375,0.0
1713489602.2439263,134953.046875,131348.875,172028.59375,191415.34375,129334.9765625,142005.921875,123511.9921875,120407.2421875,0.0
1713489602.2688608,134985.046875,131415.65625,172023.234375,191566.4375,129587.9140625,142061.609375,123590.3125,120467.328125,0.0
1713489602.2688742,135016.609375,131504.625,172009.015625,191684.1875,129814.734375,142132.421875,123667.5625,120514.4453125,0.0
1713489602.2939532,135006.59375,131501.484375,171999.453125,191618.03125,129745.265625,142127.953125,123649.5,120490.9296875,0.0
1713489602.2940032,134956.359375,131361.03125,172021.53125,191408.375,129353.3984375,142021.5625,123525.671875,120412.515625,0.0
1713489602.3196807,134989.25,131412.171875,172031.640625,191529.78125,129543.1171875,142060.453125,123583.515625,120460.890625,0.0
1713489602.3197312,135016.96875,131497.109375,172011.171875,191649.671875,129780.9375,142119.640625,123650.3046875,120501.2109375,0.0
1713489602.3197536,135021.171875,131524.015625,172002.40625,191637.078125,129795.515625,142133.859375,123653.609375,120495.3984375,0.0
1713489602.3457475,134963.0625,131377.125,172015.1875,191415.703125,129392.2890625,142027.546875,123532.9140625,120417.8828125,0.0
1713489602.3457646,134971.28125,131381.140625,172016.984375,191484.1875,129482.3203125,142034.25,123558.125,120447.8359375,0.0
1713489602.3457716,135016.875,131487.1875,172010.453125,191640.828125,129766.546875,142119.1875,123658.171875,120517.125,0.0
1713489602.3703105,135017.78125,131527.140625,171987.109375,191647.703125,129831.546875,142141.546875,123673.7265625,120514.625,0.0
1713489602.3703237,134964.578125,131398.484375,171995.4375,191425.359375,129445.125,142042.921875,123555.3515625,120433.0859375,0.0
1713489602.38095,134972.890625,131376.046875,172016.171875,191440.109375,129430.734375,142029.34375,123553.3828125,120443.453125,0.0
1713489602.3834116,135013.65625,131475.5625,172007.5,191602.296875,129726.046875,142104.703125,123642.6171875,120502.7265625,0.0
1713489602.3858988,135024.390625,131530.015625,171985.78125,191642.875,129841.203125,142134.578125,123666.484375,120509.1640625,0.0
1713489602.3884337,134979.234375,131425.40625,171994.0,191449.859375,129516.828125,142059.015625,123571.984375,120440.953125,0.0
1713489602.3909557,134969.140625,131360.84375,172015.375,191399.609375,129385.2265625,142015.75,123536.84375,120427.0,0.0
1713489602.393426,135015.453125,131463.40625,172006.875,191571.71875,129691.890625,142091.5625,123627.4140625,120493.96875,0.0
1713489602.3959863,135031.640625,131535.640625,171983.359375,191638.140625,129849.6953125,142143.515625,123672.8359375,120514.0859375,0.0
1713489602.3984396,134994.078125,131457.859375,171981.390625,191475.609375,129595.953125,142082.53125,123592.28125,120454.71875,0.0
1713489602.4034424,134976.921875,131365.328125,172013.9375,191370.734375,129364.2109375,142021.109375,123533.359375,120429.328125,0.0
1713489602.4059503,135013.484375,131447.578125,172005.09375,191530.671875,129646.3828125,142086.015625,123615.96875,120487.7109375,0.0
1713489602.4083843,135027.515625,131520.265625,171977.90625,191614.625,129831.0078125,142132.96875,123663.984375,120509.078125,0.0
1713489602.410957,135008.828125,131486.28125,171980.765625,191506.890625,129673.828125,142107.84375,123624.015625,120475.1015625,0.0
1713489602.41343,134974.59375,131366.21875,172011.703125,191347.21875,129352.5,142022.1875,123532.640625,120421.28125,0.0
1713489602.415988,135008.03125,131433.0,172008.390625,191495.09375,129599.9765625,142070.109375,123601.6640625,120476.890625,0.0
1713489602.4184527,135032.609375,131513.5625,171985.421875,191599.96875,129817.421875,142133.40625,123671.1328125,120516.234375,0.0
1713489602.4234436,135008.921875,131498.8125,171961.90625,191523.703125,129739.2734375,142121.875,123644.9375,120486.1875,0.0
1713489602.4259272,134953.578125,131354.40625,171978.625,191312.796875,129345.9765625,142016.375,123523.96875,120410.28125,0.0
1713489602.428443,134989.171875,131405.546875,171988.8125,191437.515625,129539.359375,142058.84375,123582.3515625,120460.6171875,0.0
1713489602.458393,135023.671875,131497.546875,171975.140625,191568.40625,129786.3046875,142127.953125,123658.6171875,120509.2578125,0.0
1713489602.460891,135019.203125,131517.765625,171959.046875,191547.84375,129794.6171875,142135.640625,123660.765625,120500.140625,0.0
1713489602.4634273,134967.703125,131382.484375,171980.234375,191333.09375,129399.0859375,142039.0,123553.921875,120430.21875,0.0
1713489602.465902,134983.890625,131395.890625,171991.578125,191406.484375,129491.9765625,142049.453125,123573.7734375,120455.703125,0.0
1713489602.4708788,135015.09375,131486.734375,171971.375,191546.140625,129756.625,142113.65625,123637.3359375,120497.3671875,0.0
1713489602.4733407,135020.09375,131521.96875,171949.203125,191553.203125,129817.59375,142133.3125,123656.5625,120494.953125,0.0
1713489602.4764175,134976.015625,131397.6875,171965.203125,191338.0,129443.515625,142043.015625,123551.7734375,120422.53125,0.0
1713489602.4764304,134985.671875,131377.84375,171988.453125,191353.5625,129430.1953125,142030.328125,123549.5390625,120436.2109375,0.0
1713489602.4788835,135014.828125,131468.046875,171967.53125,191507.96875,129720.59375,142100.234375,123632.421875,120490.125,0.0
1713489602.4788916,135023.234375,131525.09375,171944.015625,191549.1875,129836.90625,142136.0,123664.7890625,120499.421875,0.0
1713489602.481372,134978.25,131423.875,171949.75,191353.828125,129512.8046875,142057.59375,123567.8671875,120428.4296875,0.0
1713489602.481382,134964.3125,131356.734375,171969.328125,191300.453125,129379.234375,142007.875,123524.0625,120411.265625,0.0
1713489602.484543,135010.4375,131456.78125,171967.09375,191476.046875,129687.5078125,142089.953125,123623.75,120485.5625,0.0
1713489602.484554,135030.46875,131531.4375,171949.65625,191549.359375,129852.2890625,142143.953125,123678.375,120513.3671875,0.0
1713489602.4845593,134989.34375,131453.5625,171943.3125,191383.78125,129597.296875,142085.3125,123599.25,120449.4453125,0.0
1713489602.4877136,134963.953125,131353.15625,171966.1875,191268.0,129354.9140625,142013.25,123528.265625,120411.625,0.0
1713489602.487723,135009.28125,131441.765625,171965.484375,191437.25,129647.1875,142083.34375,123620.7109375,120482.7890625,0.0
1713489602.4902687,135023.671875,131512.75,171937.765625,191520.03125,129829.84375,142127.78125,123665.1484375,120503.4453125,0.0
1713489602.490283,134991.9375,131467.328125,171923.453125,191399.421875,129660.2421875,142090.765625,123613.203125,120456.8671875,0.0
1713489602.49216,134949.640625,131341.1875,171944.734375,191232.0625,129333.546875,142004.484375,123521.2890625,120400.71875,0.0
1713489602.4946144,135001.953125,131429.0625,171960.65625,191398.796875,129601.6796875,142074.75,123607.2109375,120474.390625,0.0
1713489602.4970927,135023.59375,131511.046875,171938.03125,191504.75,129815.71875,142129.75,123666.84375,120508.453125,0.0
1713489602.4995596,135004.453125,131499.34375,171919.875,191431.078125,129737.84375,142114.453125,123641.2734375,120476.265625,0.0
1713489602.502092,134956.625,131358.890625,171942.234375,191228.21875,129354.734375,142011.90625,123526.65625,120406.078125,0.0
1713489602.504597,134984.25,131403.59375,171947.234375,191346.859375,129541.1484375,142047.84375,123579.671875,120453.375,0.0
1713489602.5095985,135014.28125,131493.0,171930.34375,191471.40625,129787.46875,142115.4375,123650.8359375,120496.203125,0.0
1713489602.512698,135014.109375,131515.078125,171919.078125,191449.40625,129793.1875,142127.328125,123652.1796875,120486.640625,0.0
1713489602.5127082,134963.234375,131373.1875,171936.875,191228.390625,129391.5703125,142023.890625,123531.484375,120406.7109375,0.0
1713489602.5145772,134990.0625,131391.078125,171955.015625,191306.09375,129490.28125,142041.234375,123565.2734375,120445.421875,0.0
1713489602.5182195,135024.921875,131484.046875,171938.390625,191450.125,129761.8046875,142108.640625,123645.03125,120499.2421875,0.0
1713489602.5182283,135029.84375,131530.359375,171921.671875,191464.515625,129831.3671875,142136.0,123664.6953125,120501.296875,0.0
1713489602.5182335,134974.0625,131401.359375,171931.328125,191245.375,129451.8359375,142042.578125,123553.7421875,120423.515625,0.0
1713489602.520826,134973.96875,131373.1875,171944.734375,191256.828125,129433.4140625,142023.53125,123541.3125,120429.59375,0.0
1713489602.5239031,135010.625,131471.53125,171931.765625,191419.28125,129730.15625,142100.0625,123633.9453125,120494.328125,0.0
1713489602.5239122,135024.484375,131533.859375,171915.140625,191467.828125,129857.46875,142144.5,123677.390625,120512.4765625,0.0
1713489602.526382,134976.296875,131428.171875,171920.59375,191270.140625,129531.140625,142070.734375,123586.1953125,120442.203125,0.0
1713489602.5263896,134971.015625,131368.0,171946.4375,191224.546875,129403.9140625,142032.015625,123554.4609375,120433.890625,0.0
1713489602.5282912,135010.53125,131457.40625,171932.390625,191389.6875,129698.953125,142099.4375,123637.875,120494.1484375,0.0
1713489602.5308385,135021.625,131521.609375,171904.40625,191453.875,129850.40625,142141.8125,123678.375,120509.1640625,0.0
1713489602.5339425,134983.71875,131447.578125,171902.09375,191294.828125,129599.7109375,142083.25,123603.3671875,120450.875,0.0
1713489602.5339496,134952.0625,131342.34375,171919.96875,191173.5,129351.609375,142002.34375,123523.7890625,120409.125,0.0
1713489602.535806,135000.78125,131433.0,171919.796875,191343.09375,129643.609375,142068.953125,123600.328125,120471.4375,0.0
1713489602.5383315,135026.71875,131518.03125,171905.125,191437.875,129840.0390625,142129.03125,123662.4609375,120503.0859375,0.0
1713489602.5408287,134994.96875,131476.359375,171894.84375,191320.75,129675.53125,142093.984375,123610.7890625,120457.4921875,0.0
1713489602.5451703,134955.8125,131353.4375,171919.875,191157.046875,129348.65625,142007.4375,123516.7265625,120405.546875,0.0
1713489602.5451791,134998.109375,131429.515625,171924.171875,191311.8125,129605.1640625,142068.671875,123596.9296875,120469.921875,0.0
1713489602.556403,135019.5625,131509.53125,171900.21875,191415.78125,129821.9765625,142131.984375,123668.09375,120507.9140625,0.0
1713489602.5564125,134998.109375,131494.515625,171879.203125,191339.609375,129740.3515625,142115.4375,123637.6953125,120475.28125,0.0
1713489602.5583467,134952.0625,131355.390625,171900.84375,191136.390625,129357.6875,142015.296875,123520.0390625,120402.859375,0.0
1713489602.5645804,134987.015625,131405.90625,171913.265625,191262.71875,129548.390625,142051.953125,123575.2890625,120454.984375,0.0
1713489602.5676703,135023.234375,131501.3125,171903.609375,191399.421875,129800.96875,142122.046875,123659.15625,120508.453125,0.0
1713489602.5676796,135015.8125,131518.828125,171885.015625,191372.34375,129802.6640625,142129.03125,123656.828125,120493.34375,0.0
1713489602.5733943,134960.90625,131375.328125,171899.3125,191146.5,129399.2578125,142026.828125,123532.640625,120411.0,0.0
1713489602.5802412,134983.984375,131391.515625,171914.875,191222.046875,129497.4296875,142043.546875,123567.0625,120446.046875,0.0
1713489602.5802543,135026.71875,131489.234375,171906.109375,191373.328125,129775.0390625,142118.484375,123657.546875,120507.734375,0.0
1713489602.5896635,135031.1875,131528.046875,171884.5625,191383.78125,129839.6796875,142139.75,123671.4921875,120505.59375,0.0
1713489602.592723,134972.796875,131393.84375,171889.9375,191159.375,129454.0703125,142038.90625,123551.8671875,120421.3671875,0.0
1713489602.5927365,134970.203125,131362.28125,171902.265625,191165.53125,129432.34375,142011.453125,123533.71875,120423.78125,0.0
1713489602.594662,135013.125,131466.984375,171897.53125,191332.734375,129733.9140625,142093.890625,123627.6796875,120490.125,0.0
1713489602.6060102,135023.59375,131526.703125,171879.203125,191376.625,129853.1796875,142132.96875,123663.984375,120502.375,0.0
1713489602.6108704,134975.125,131418.515625,171880.546875,191178.5,129525.4140625,142055.359375,123571.265625,120434.15625,0.0
1713489602.610883,134962.515625,131351.640625,171896.359375,191124.6875,129390.6796875,142010.296875,123529.3359375,120418.5078125,0.0
1713489602.6108897,135006.59375,131451.328125,171888.859375,191293.75,129696.359375,142092.546875,123629.1171875,120488.515625,0.0
1713489602.6134827,135024.484375,131524.5625,171870.890625,191366.078125,129859.4375,142142.265625,123677.5703125,120513.3671875,0.0
1713489602.6172168,134986.125,131449.1875,171870.4375,191208.1875,129608.828125,142084.59375,123598.0859375,120450.3359375,0.0
1713489602.642284,134963.328125,131353.703125,171897.53125,191101.515625,129373.9609375,142018.609375,123535.328125,120418.953125,0.0
1713489602.6928244,135002.3125,131438.8125,171890.46875,191266.84375,129660.953125,142079.140625,123615.4375,120483.5078125,0.0
1713489602.6928384,135028.859375,131521.15625,171875.796875,191361.34375,129859.078125,142141.453125,123685.890625,120522.4921875,0.0
1713489602.7171965,135010.171875,131485.3125,171873.390625,191248.953125,129697.4375,142112.75,123633.9453125,120477.6953125,0.0
1713489602.74099,134965.5625,131356.5625,171891.09375,191075.78125,129363.6796875,142020.125,123527.8125,120414.3046875,0.0
1713489602.744036,134991.046875,131416.546875,171880.09375,191216.328125,129604.2734375,142062.59375,123590.671875,120467.953125,0.0
1713489602.7440486,135011.15625,131498.71875,171857.46875,191323.96875,129822.2421875,142122.140625,123654.59375,120501.921875,0.0
1713489602.749816,134997.484375,131492.28125,171845.859375,191257.453125,129747.9453125,142114.71875,123634.8359375,120476.4453125,0.0
1713489602.7498295,134958.140625,131360.671875,171874.28125,191058.421875,129372.2578125,142019.0625,123527.0078125,120408.4921875,0.0
1713489602.7498355,134994.34375,131410.921875,171885.640625,191178.859375,129559.9296875,142058.84375,123580.65625,120457.046875,0.0
1713489602.7498412,135025.90625,131500.0625,171867.21875,191308.40625,129809.640625,142125.359375,123655.1328125,120501.125,0.0
1713489602.7498465,135021.0,131518.03125,171851.65625,191282.9375,129807.3125,142130.453125,123651.375,120489.9453125,0.0
1713489602.7498517,134967.4375,131380.875,171870.53125,191065.140625,129414.546875,142032.828125,123541.2265625,120419.046875,0.0
1713489602.752725,134981.65625,131391.703125,171880.359375,191134.96875,129505.1171875,142044.359375,123572.0703125,120452.390625,0.0
1713489602.7527423,135021.171875,131493.890625,171869.640625,191290.53125,129789.609375,142122.40625,123661.9296875,120514.4453125,0.0
1713489602.7546673,135025.734375,131535.640625,171853.625,191304.75,129856.3125,142147.984375,123678.1953125,120517.2109375,0.0
1713489602.7596896,134974.140625,131407.609375,171866.421875,191088.015625,129478.390625,142053.296875,123565.1875,120439.96875,0.0
1713489602.76217,134975.484375,131378.90625,171878.75,191095.0,129456.6640625,142035.515625,123556.25,120444.5234375,0.0
1713489602.7646744,135005.078125,131469.296875,171853.71875,191244.65625,129741.5078125,142106.40625,123635.375,120495.4921875,0.0
1713489602.7671492,135012.046875,131523.75,171829.84375,191284.09375,129854.609375,142139.3125,123668.0078125,120503.4453125,0.0
1713489602.7696145,134965.65625,131417.265625,171836.828125,191087.046875,129525.953125,142056.703125,123566.9765625,120427.2734375,0.0
1713489602.7720428,134972.453125,131367.828125,171874.8125,191050.46875,129408.46875,142024.59375,123538.453125,120424.859375,0.0
1713489602.774591,135017.59375,131468.9375,171868.375,191222.671875,129713.2578125,142103.375,123631.703125,120494.953125,0.0
1713489602.7770844,135029.75,131536.265625,171841.109375,191286.0625,129867.484375,142147.53125,123675.15625,120512.2109375,0.0
1713489602.7796013,134990.859375,131459.375,171838.078125,191124.5,129613.75,142084.140625,123596.75,120451.140625,0.0
1713489602.782092,134965.375,131364.421875,171866.59375,191019.09375,129381.203125,142022.0,123536.21875,120421.90625,0.0
1713489602.78707,135005.265625,131452.3125,171861.5,191189.328125,129672.84375,142092.28125,123622.5859375,120487.890625,0.0
1713489602.7895849,135028.0625,131533.578125,171841.921875,191283.90625,129868.203125,142149.234375,123684.1875,120525.3515625,0.0
1713489602.79209,134999.0,131488.078125,171831.71875,191163.390625,129700.65625,142112.75,123632.2421875,120477.7890625,0.0
1713489602.7945747,134952.421875,131353.609375,171849.34375,190987.0,129363.765625,142011.28125,123524.59375,120411.4453125,0.0
1713489602.7970927,134988.453125,131422.09375,171848.359375,191135.40625,129609.9921875,142060.28125,123589.6875,120464.640625,0.0
1713489602.8001747,135021.4375,131510.78125,171834.9375,191250.296875,129835.03125,142123.9375,123658.9765625,120508.0078125,0.0
1713489602.8001876,135016.34375,131512.84375,171830.46875,191189.234375,129770.296875,142129.109375,123651.015625,120490.3046875,0.0
1713489602.8020444,134965.921875,131374.53125,171851.125,190985.296875,129386.65625,142032.015625,123537.5625,120418.953125,0.0
1713489602.8046045,134992.734375,131419.328125,171856.046875,191106.703125,129575.484375,142068.953125,123594.0625,120468.9375,0.0
1713489602.8101614,135023.859375,131507.75,171838.703125,191233.578125,129819.4765625,142135.90625,123667.109375,120511.8515625,0.0
1713489602.8101711,135016.96875,131523.484375,171819.921875,191204.78125,129820.0078125,142136.453125,123663.0,120496.46875,0.0
1713489602.8132508,134956.796875,131375.421875,171831.1875,190975.640625,129410.078125,142021.46875,123533.71875,120414.125,0.0
1713489602.8132584,134978.53125,131393.21875,171846.203125,191054.578125,129513.2578125,142041.59375,123565.90625,120450.78125,0.0
1713489602.813264,135017.859375,131493.4375,171837.453125,191205.859375,129792.4765625,142124.734375,123665.1484375,120514.796875,0.0
1713489602.816996,135028.765625,131543.0625,171823.59375,191223.65625,129869.2734375,142160.140625,123696.3515625,120524.0078125,0.0
1713489602.8170066,134978.4375,131413.0625,171833.515625,190999.78125,129483.6640625,142061.171875,123574.6640625,120441.1328125,0.0
1713489602.8170133,134982.734375,131381.140625,171847.1875,191012.296875,129465.0625,142035.859375,123557.765625,120445.0625,0.0
1713489602.8201375,135017.953125,131474.21875,171832.265625,191167.6875,129753.578125,142109.0,123640.734375,120499.515625,0.0
1713489602.8201482,135030.109375,131536.265625,171814.828125,191214.171875,129876.6015625,142144.671875,123673.90625,120511.046875,0.0
1713489602.82209,134987.375,131438.015625,171827.078125,191023.296875,129556.171875,142074.40625,123585.0390625,120449.3515625,0.0
1713489602.8251479,134971.375,131369.703125,171844.59375,190972.234375,129424.4765625,142025.140625,123544.1796875,120436.65625,0.0
1713489602.8251612,135006.421875,131459.640625,171830.03125,191139.875,129722.6484375,142094.0625,123630.7265625,120498.6171875,0.0
1713489602.8271072,135027.15625,131533.234375,171812.40625,191215.703125,129885.1015625,142144.234375,123680.96875,120524.453125,0.0
1713489602.8296058,134993.453125,131462.328125,171812.953125,191056.734375,129636.4609375,142097.28125,123619.1015625,120470.8984375,0.0
1713489602.8320882,134964.75,131359.515625,171833.328125,190937.46875,129390.140625,142024.421875,123543.375,120428.078125,0.0
1713489602.8346028,135005.265625,131445.4375,171827.609375,191102.859375,129676.8671875,142085.21875,123615.2578125,120486.3671875,0.0
1713489602.8376513,135029.578125,131529.828125,171812.140625,191196.921875,129872.5859375,142146.546875,123677.6640625,120521.59375,0.0
1713489602.837665,134998.828125,131486.28125,171800.96875,191075.953125,129704.3203125,142108.203125,123625.1796875,120475.4609375,0.0
1713489602.83958,134962.34375,131364.6875,171827.703125,190911.171875,129377.8046875,142020.9375,123532.109375,120420.8359375,0.0
1713489602.8552043,135000.15625,131433.1875,171826.890625,191062.625,129630.2890625,142077.625,123607.65625,120480.828125,0.0
1713489602.8552208,135026.359375,131518.03125,171805.984375,191172.953125,129851.2109375,142142.890625,123677.0390625,120521.7734375,0.0
1713489602.8570652,135009.8125,131510.609375,171790.0625,191103.484375,129775.125,142133.40625,123654.328125,120494.0546875,0.0
1713489602.8601604,134956.796875,131365.859375,171806.953125,190895.171875,129384.2421875,142017.09375,123525.8515625,120415.2890625,0.0
1713489602.8601737,134988.09375,131415.65625,171818.3125,191017.484375,129574.234375,142058.03125,123586.2890625,120465.09375,0.0
1713489602.867157,135017.78125,131507.828125,171801.5,191143.984375,129823.765625,142129.109375,123667.5625,120513.28125,0.0
1713489602.8739746,135013.578125,131531.171875,171785.5,191120.75,129829.484375,142137.078125,123669.5234375,120501.4765625,0.0
1713489602.873984,134957.515625,131388.828125,171801.859375,190898.484375,129427.6953125,142031.578125,123545.515625,120418.5078125,0.0
1713489602.8759077,134975.578125,131399.46875,171812.40625,190969.640625,129518.9765625,142043.28125,123568.8515625,120448.4609375,0.0
1713489602.887736,135025.015625,131505.59375,171807.671875,191128.53125,129805.2578125,142129.203125,123668.71875,120517.75,0.0
1713489602.8877456,135024.75,131541.28125,171781.125,191133.53125,129865.7890625,142151.640625,123682.9375,120513.546875,0.0
1713489602.8927336,134978.171875,131417.0,171797.125,190917.53125,129487.8671875,142059.734375,123575.0234375,120440.5,0.0
1713489602.8927488,134983.0,131393.21875,171815.453125,190930.75,129471.859375,142041.5,123569.75,120450.6953125,0.0
1713489602.894647,135012.234375,131482.53125,171794.53125,191085.4375,129757.6953125,142109.359375,123652.625,120503.53125,0.0
1713489602.9008975,135022.515625,131540.46875,171773.515625,191132.28125,129876.515625,142142.4375,123678.8203125,120514.3515625,0.0
1713489602.9090106,134977.71875,131437.296875,171780.859375,190937.375,129551.96875,142069.84375,123583.515625,120445.421875,0.0
1713489602.9090261,134967.4375,131376.59375,171805.0,190888.734375,129424.1171875,142032.46875,123551.1484375,120434.78125,0.0
1713489602.9146445,135011.96875,131473.234375,171796.046875,191056.546875,129726.2265625,142105.953125,123640.2890625,120498.171875,0.0
1713489602.918994,135031.546875,131541.8125,171773.875,191124.234375,129881.703125,142145.484375,123676.0546875,120515.6015625,0.0
1713489602.9190068,134987.015625,131457.140625,171763.421875,190954.984375,129620.9921875,142078.328125,123594.9609375,120449.890625,0.0
1713489602.925898,134966.90625,131363.71875,171795.421875,190851.09375,129391.21875,142023.171875,123546.59375,120427.984375,0.0
1713489602.9340138,135005.53125,131451.953125,171791.21875,191021.5,129685.5390625,142094.875,123638.859375,120495.4921875,0.0
1713489602.934026,135026.453125,131532.0625,171772.625,191114.9375,129880.453125,142147.09375,123693.484375,120525.890625,0.0
1713489602.942788,134995.25,131487.984375,171760.109375,190991.90625,129711.46875,142109.171875,123635.28125,120475.015625,0.0
1713489602.942801,134954.75,131358.4375,171780.859375,190819.796875,129374.8515625,142014.234375,123530.5859375,120412.96875,0.0
1713489602.9447572,134997.21875,131430.859375,171784.25,190973.5,129626.53125,142069.75,123603.2734375,120472.15625,0.0
1713489602.9508865,135031.1875,131521.78125,171771.015625,191089.28125,129853.8984375,142134.65625,123672.4765625,120514.265625,0.0
1713489602.957744,135018.484375,131516.328125,171761.09375,191023.296875,129780.4921875,142129.75,123655.0390625,120489.9453125,0.0
1713489602.9577572,134969.5,131375.421875,171783.796875,190819.984375,129397.203125,142030.765625,123544.625,120419.8515625,0.0
1713489602.9639704,135001.0625,131422.8125,171794.265625,190944.96875,129587.109375,142067.515625,123601.21875,120474.2109375,0.0
1713489602.9639833,135031.28125,131515.171875,171778.265625,191081.140625,129841.828125,142136.53125,123680.96875,120525.2578125,0.0
1713489602.9657924,135026.265625,131537.15625,171761.09375,191056.375,129845.3125,142145.484375,123680.609375,120511.7578125,0.0
1713489602.9771333,134973.78125,131397.328125,171779.328125,190828.109375,129440.2109375,142045.875,123566.53125,120433.3515625,0.0
1713489602.981459,134996.9375,131416.734375,171795.609375,190905.453125,129542.578125,142065.375,123600.859375,120469.828125,0.0
1713489602.98148,135028.140625,131507.125,171777.28125,191048.0625,129811.3359375,142135.109375,123682.3125,120523.0234375,0.0
1713489602.9833994,135028.234375,131544.765625,171751.796875,191057.171875,129875.625,142156.75,123689.640625,120514.171875,0.0
1713489603.009025,134974.5,131415.296875,171763.421875,190835.359375,129492.8671875,142065.109375,123580.8359375,120437.9140625,0.0
1713489603.0090604,134974.234375,131383.921875,171775.484375,190847.421875,129476.78125,142046.953125,123575.46875,120447.296875,0.0
1713489603.0334656,135012.671875,131479.046875,171761.90625,191012.65625,129772.625,142122.140625,123666.3046875,120511.3125,0.0
1713489603.058411,135025.46875,131543.234375,171743.921875,191063.53125,129900.65625,142165.421875,123711.0078125,120531.4296875,0.0
1713489603.0833883,134975.3125,131435.5,171747.5,190861.375,129568.2421875,142082.171875,123604.4375,120455.1640625,0.0
1713489603.1083932,134960.640625,131366.9375,171764.765625,190803.34375,129429.484375,142032.296875,123549.09375,120430.578125,0.0
1713489603.1522045,135003.375,131465.71875,171755.1875,190974.03125,129730.875,142106.671875,123638.0546875,120493.609375,0.0
1713489603.1796994,135019.921875,131537.078125,171733.46875,191045.375,129890.109375,142154.78125,123689.28125,120516.40625,0.0
1713489603.1797135,134987.5625,131466.703125,171737.578125,190890.609375,129642.4453125,142101.3125,123618.65625,120461.6953125,0.0
1713489603.1797216,134965.5625,131369.609375,171765.921875,190779.125,129400.6015625,142033.09375,123549.5390625,120427.71875,0.0
1713489603.1952088,135000.78125,131452.21875,171754.125,190938.71875,129682.7734375,142093.265625,123623.125,120482.96875,0.0
1713489603.1952217,135022.78125,131533.40625,171732.75,191031.78125,129878.0390625,142151.296875,123684.1015625,120516.6796875,0.0
1713489603.1952276,135004.625,131501.9375,171734.546875,190922.703125,129723.5390625,142128.40625,123644.7578125,120481.5390625,0.0
1713489603.1952329,134962.96875,131373.8125,171758.046875,190754.171875,129395.4140625,142039.984375,123552.7578125,120424.140625,0.0
1713489603.19838,134988.984375,131432.90625,171746.4375,190895.4375,129637.9765625,142084.328125,123620.265625,120476.265625,0.0
1713489603.1983924,135006.953125,131515.171875,171719.875,191003.0,129857.7421875,142141.8125,123687.5,120513.1015625,0.0
1713489603.1983993,135000.875,131518.75,171718.171875,190943.0,129790.1484375,142142.890625,123674.796875,120496.828125,0.0
1713489603.2034895,134956.078125,131378.46875,171742.859375,190738.796875,129406.5,142039.171875,123553.296875,120421.90625,0.0
1713489603.2060516,134995.421875,131427.1875,171757.078125,190860.125,129592.9140625,142077.078125,123608.640625,120474.2109375,0.0
1713489603.2134864,135031.640625,131523.125,171744.375,190995.9375,129852.109375,142150.84375,123688.75,120525.53125,0.0
1713489603.2159743,135013.578125,131531.0,171716.03125,190959.09375,129841.0234375,142147.09375,123672.296875,120499.8671875,0.0
1713489603.2185051,134963.0625,131390.4375,171735.25,190737.90625,129438.6015625,142043.828125,123551.0625,120423.875,0.0
1713489603.2209082,134984.421875,131405.46875,171748.84375,190811.75,129533.1953125,142058.84375,123580.4765625,120458.828125,0.0
1713489603.2235124,135013.390625,131500.859375,171729.265625,190957.125,129809.1953125,142129.03125,123668.09375,120514.625,0.0
1713489603.2260184,135021.171875,131550.390625,171715.59375,190976.171875,129883.671875,142158.53125,123695.9921875,120522.4921875,0.0
1713489603.2285335,134962.34375,131416.46875,171722.921875,190750.328125,129496.71875,142062.234375,123580.65625,120437.734375,0.0
1713489603.2310202,134966.09375,131390.984375,171740.625,190762.21875,129479.640625,142048.828125,123571.890625,120441.578125,0.0
1713489603.233529,135011.34375,131494.328125,171731.765625,190930.3125,129782.640625,142129.203125,123667.9140625,120507.6484375,0.0
1713489603.2359698,135025.28125,131554.6875,171712.640625,190979.03125,129905.0390625,142171.3125,123707.96875,120522.7578125,0.0
1713489603.2384043,134975.484375,131441.765625,171714.25,190778.140625,129570.03125,142086.109375,123604.078125,120447.4765625,0.0
1713489603.240934,134967.53125,131374.4375,171739.28125,190727.265625,129435.203125,142037.203125,123564.5625,120436.03125,0.0
1713489603.2434413,135011.96875,131472.515625,171733.734375,190902.765625,129743.921875,142114.09375,123666.3984375,120509.5234375,0.0
1713489603.2459335,135022.328125,131537.96875,171705.125,190968.125,129898.15625,142149.59375,123691.7890625,120520.8828125,0.0
1713489603.2484248,134972.71875,131453.46875,171692.515625,190794.765625,129634.3984375,142081.015625,123597.8203125,120448.28125,0.0
1713489603.2509444,134948.21875,131358.796875,171719.609375,190681.75,129396.578125,142019.859375,123537.7421875,120416.8984375,0.0
1713489603.253434,134996.3125,131455.265625,171720.0625,190856.015625,129694.125,142096.21875,123633.40625,120488.875,0.0
1713489603.2559588,135022.328125,131539.03125,171702.4375,190952.578125,129893.1484375,142158.53125,123704.0390625,120526.2421875,0.0
1713489603.2584677,134996.765625,131496.484375,171693.234375,190834.828125,129727.4765625,142123.21875,123651.8203125,120478.0546875,0.0
1713489603.260936,134955.28125,131366.390625,171717.203125,190664.5,129393.6328125,142033.546875,123552.578125,120418.421875,0.0
1713489603.263446,134990.78125,131435.859375,171717.46875,190816.046875,129645.7578125,142090.5,123628.578125,120478.9453125,0.0
1713489603.265954,135016.078125,131522.5,171698.328125,190929.140625,129868.203125,142150.671875,123688.9296875,120516.40625,0.0
1713489603.2702105,134993.71875,131508.28125,171678.296875,190857.0,129788.2734375,142137.703125,123663.5390625,120486.546875,0.0
1713489603.2702205,134939.453125,131359.953125,171693.953125,190646.890625,129396.84375,142033.8125,123549.359375,120413.234375,0.0
1713489603.2702258,134977.359375,131411.8125,171706.90625,190770.1875,129586.75,142076.1875,123606.8515625,120465.8984375,0.0
1713489603.270231,135018.671875,131511.5,171697.4375,190906.796875,129841.109375,142146.28125,123681.8671875,120516.6796875,0.0
1713489603.2721944,135026.09375,131540.828125,171691.359375,190892.765625,129853.4453125,142163.8125,123691.25,120514.625,0.0
1713489603.2772226,134963.140625,131386.515625,171700.828125,190659.765625,129437.8828125,142043.90625,123558.125,120424.859375,0.0
1713489603.279696,134980.140625,131400.015625,171714.515625,190731.921875,129532.65625,142053.65625,123584.9453125,120454.5390625,0.0
1713489603.287092,135021.265625,131504.34375,171706.28125,190885.34375,129817.6875,142136.0,123682.21875,120516.234375,0.0
1713489603.2871263,135027.15625,131548.78125,171686.078125,190900.171875,129889.2109375,142159.609375,123696.4375,120514.890625,0.0
1713489603.2871456,134968.515625,131414.671875,171692.515625,190675.40625,129500.2890625,142061.890625,123577.9765625,120432.8125,0.0
1713489603.287161,134973.515625,131390.53125,171712.546875,190691.953125,129486.609375,142053.484375,123581.7265625,120448.28125,0.0
1713489603.2871768,135011.96875,131488.25,171698.234375,190853.859375,129784.0703125,142130.375,123671.40625,120510.7734375,0.0
1713489603.2871933,135026.09375,131549.328125,171676.6875,190900.265625,129906.109375,142166.40625,123701.0859375,120520.34375,0.0
1713489603.287209,134986.296875,131450.703125,171692.34375,190709.46875,129584.2421875,142096.3125,123617.046875,120458.7421875,0.0
1713489603.2872214,134978.078125,131389.375,171721.671875,190662.796875,129459.078125,142062.0625,123594.2421875,120454.8984375,0.0
1713489603.2902288,135016.171875,131481.8125,171707.546875,190827.84375,129757.0703125,142127.953125,123667.5625,120509.2578125,0.0
1713489603.2902496,135032.703125,131553.875,171685.8125,190900.453125,129919.875,142176.6875,123718.7890625,120533.0390625,0.0
1713489603.2921722,134990.953125,131472.609375,171679.734375,190736.203125,129662.296875,142115.890625,123637.4296875,120467.953125,0.0
1713489603.2971802,134960.828125,131366.9375,171698.15625,190615.78125,129412.046875,142040.6875,123560.09375,120426.015625,0.0
1713489603.3121169,135000.78125,131455.53125,171690.1875,190781.625,129700.296875,142107.125,123646.640625,120490.75,0.0
1713489603.3121307,135025.203125,131539.9375,171671.0625,190875.59375,129894.84375,142163.625,123701.625,120521.59375,0.0
1713489603.3121357,135003.5625,131502.5625,171667.578125,190762.21875,129734.2734375,142131.703125,123655.9375,120482.7890625,0.0
1713489603.3121417,134963.140625,131371.3125,171689.921875,190589.84375,129400.3359375,142035.421875,123558.3046875,120425.75,0.0
1713489603.3121464,135004.453125,131444.984375,171694.3125,190746.84375,129657.734375,142095.859375,123636.7109375,120490.8359375,0.0
1713489603.3121517,135024.75,131527.0625,171670.4375,190857.359375,129879.1953125,142157.8125,123701.890625,120526.8671875,0.0
1713489603.3121572,135008.203125,131520.53125,171657.65625,190789.671875,129804.3671875,142148.96875,123676.234375,120497.1875,0.0
1713489603.3121655,134958.5,131377.921875,171679.375,190580.640625,129415.0,142047.21875,123562.59375,120424.5859375,0.0
1713489603.3121758,134987.640625,131423.4375,171685.71875,190698.65625,129598.640625,142082.09375,123617.9375,120472.8671875,0.0
1713489603.3121817,135024.84375,131522.671875,171671.6875,190834.734375,129856.0390625,142154.6875,123699.7421875,120525.890625,0.0
1713489603.312188,135018.671875,131542.796875,171651.03125,190811.046875,129861.046875,142159.6875,123698.2265625,120514.265625,0.0
1713489603.3121936,134966.984375,131401.078125,171669.8125,190587.796875,129455.40625,142061.53125,123582.0859375,120436.3046875,0.0
1713489603.3121996,134981.5625,131403.5,171675.890625,190653.0625,129539.8125,142066.171875,123598.0,120457.9375,0.0
1713489603.3177016,135017.328125,131498.359375,171659.96875,190801.03125,129815.8125,142132.875,123679.1796875,120512.2109375,0.0
1713489603.3177133,135022.609375,131545.125,171641.015625,190816.5,129890.8203125,142160.59375,123702.515625,120513.546875,0.0
1713489603.3196945,134966.90625,131411.640625,171651.65625,190592.796875,129504.4921875,142065.546875,123589.7734375,120434.6015625,0.0
1713489603.3221893,134978.890625,131391.78125,171679.015625,190614.703125,129497.4296875,142060.71875,123597.640625,120458.1171875,0.0
1713489603.3246489,135012.234375,131484.046875,171658.984375,190774.734375,129789.7890625,142127.78125,123676.3203125,120512.3828125,0.0
1713489603.3271554,135021.171875,131544.84375,171635.921875,190820.34375,129908.8828125,142163.1875,123702.9609375,120517.75,0.0
1713489603.329713,134977.90625,131443.546875,171645.484375,190624.53125,129581.6484375,142093.4375,123617.9375,120450.609375,0.0
1713489603.332168,134966.1875,131374.171875,171664.890625,190568.65625,129440.2109375,142040.6875,123572.7890625,120433.7109375,0.0
1713489603.334653,135007.140625,131467.953125,171653.1875,190735.3125,129736.6796875,142104.4375,123648.421875,120491.1953125,0.0
1713489603.3371952,135026.171875,131543.15625,171634.9375,190809.875,129903.15625,142159.96875,123705.6484375,120518.109375,0.0
1713489603.33966,134987.015625,131469.390625,171634.859375,190647.25,129650.9453125,142107.390625,123630.09375,120460.3515625,0.0
1713489603.3421931,134964.125,131369.96875,171663.375,190529.9375,129405.5234375,142032.734375,123556.25,120426.375,0.0
1713489603.3445969,135013.84375,131462.953125,171665.703125,190704.828125,129702.265625,142100.953125,123643.6875,120497.0078125,0.0
1713489603.3477187,135028.765625,131533.671875,171635.828125,190795.484375,129893.859375,142151.296875,123699.1171875,120524.7265625,0.0
1713489603.3477392,134997.65625,131485.75,171619.921875,190676.390625,129724.6171875,142112.75,123640.5546875,120475.375,0.0
1713489603.349661,134952.859375,131351.46875,171638.703125,190503.296875,129384.0625,142016.015625,123534.34375,120409.5703125,0.0
1713489603.35272,134993.28125,131427.1875,171642.625,190658.0625,129641.375,142075.734375,123611.0546875,120471.2578125,0.0
1713489603.352739,135029.125,131524.015625,171633.421875,190780.015625,129874.3671875,142145.65625,123687.40625,120520.8828125,0.0
1713489603.3546643,135025.109375,131532.421875,171631.546875,190725.203125,129816.8828125,142147.796875,123677.2109375,120502.375,0.0
1713489603.3815303,134976.828125,131391.25,171658.359375,190512.875,129422.953125,142046.59375,123562.953125,120426.015625,0.0
1713489603.3815439,135008.125,131438.71875,171668.734375,190635.71875,129615.1796875,142084.0625,123617.3125,120474.390625,0.0
1713489603.405936,135028.765625,131521.515625,171643.171875,190757.21875,129853.71875,142144.234375,123689.109375,120514.4453125,0.0
1713489603.430858,135022.328125,131539.03125,171619.203125,190733.171875,129859.8828125,142148.78125,123685.171875,120499.2421875,0.0
1713489603.4571958,134976.296875,131400.015625,171644.78125,190512.0625,129457.2890625,142057.328125,123582.9765625,120432.453125,0.0
1713489603.482153,134989.078125,131405.015625,171651.03125,190581.796875,129548.2109375,142060.453125,123597.4609375,120457.4921875,0.0
1713489603.4884703,135025.203125,131501.484375,171637.171875,190729.40625,129820.4609375,142133.046875,123677.390625,120511.4921875,0.0
1713489603.4909573,135031.28125,131547.0,171615.0,190747.296875,129896.453125,142159.609375,123696.5234375,120513.8203125,0.0
1713489603.4939747,134973.15625,131410.734375,171619.828125,190518.40625,129501.8125,142057.5,123576.8984375,120430.3125,0.0
1713489603.4939852,134975.9375,131383.5625,171635.390625,190529.234375,129481.9609375,142039.703125,123568.765625,120438.71875,0.0
1713489603.4959052,135015.359375,131485.21875,171622.875,190694.359375,129780.9375,142118.03125,123660.765625,120503.265625,0.0
1713489603.498417,135032.96875,131553.171875,171608.03125,190746.046875,129908.703125,142163.71875,123699.7421875,120522.578125,0.0
1713489603.5009031,134983.0,131440.515625,171610.09375,190544.078125,129572.625,142078.6875,123597.5546875,120447.03125,0.0
1713489603.503471,134970.390625,131371.125,171632.265625,190488.1875,129431.8046875,142030.859375,123560.5390625,120434.2421875,0.0
1713489603.5059152,135014.28125,131471.984375,171625.109375,190663.515625,129742.765625,142110.25,123657.8125,120504.875,0.0
1713489603.5084484,135035.125,131550.484375,171608.203125,190742.015625,129915.8515625,142168.09375,123716.109375,120533.484375,0.0
1713489603.5109372,134992.5625,131473.234375,171605.609375,190576.25,129662.2109375,142113.65625,123639.6640625,120469.921875,0.0
1713489603.513382,134967.34375,131371.484375,171631.640625,190458.953125,129416.25,142039.984375,123560.2734375,120428.4296875,0.0
1713489603.5157976,135013.125,131464.390625,171630.46875,190631.421875,129712.09375,142109.71875,123647.7109375,120498.2578125,0.0
1713489603.518341,135028.0625,131541.1875,171599.71875,190722.796875,129907.2734375,142160.046875,123701.8046875,120523.3828125,0.0
1713489603.5208309,134994.53125,131489.15625,171583.078125,190600.671875,129730.875,142114.90625,123644.2265625,120474.03125,0.0
1713489603.5258968,134954.5625,131357.0,171607.140625,190429.265625,129394.96875,142023.796875,123547.578125,120417.703125,0.0
1713489603.528376,134992.109375,131426.75,171609.8125,190579.5625,129646.0234375,142081.28125,123623.125,120477.0703125,0.0
1713489603.5308807,135026.984375,131524.203125,171598.640625,190701.78125,129881.4296875,142151.015625,123700.015625,120523.3828125,0.0
1713489603.5333357,135014.921875,131520.796875,171588.359375,190636.96875,129809.1015625,142138.328125,123678.8203125,120499.6875,0.0
1713489603.5358243,134958.3125,131369.25,171604.28125,190419.703125,129408.0234375,142027.109375,123549.09375,120414.7578125,0.0
1713489603.5383549,134991.484375,131416.90625,171614.109375,190543.984375,129596.8515625,142068.234375,123608.015625,120465.71875,0.0
1713489603.54462,135020.546875,131510.25,171594.078125,190676.84375,129851.2109375,142137.25,123687.046875,120515.6953125,0.0
1713489603.5471168,135011.875,131531.078125,171571.8125,190652.703125,129855.6875,142146.640625,123686.421875,120503.4453125,0.0
1713489603.5496197,134959.75,131386.78125,171593.28125,190429.0,129449.421875,142045.796875,123568.140625,120429.0625,0.0
1713489603.554633,134982.734375,131400.015625,171611.0625,190502.140625,129542.1328125,142058.21875,123591.6484375,120458.7421875,0.0
1713489603.5571249,135025.46875,131502.296875,171603.109375,190657.796875,129826.8046875,142134.65625,123682.21875,120517.6640625,0.0
1713489603.5595856,135039.5,131556.828125,171592.921875,190682.828125,129909.59375,142173.90625,123714.3203125,120527.8515625,0.0
1713489603.5620873,134978.078125,131419.234375,171596.234375,190453.5,129517.4609375,142072.4375,123593.171875,120442.6484375,0.0
1713489603.5645957,134973.421875,131382.484375,171606.0625,190455.203125,129486.96875,142043.640625,123574.9296875,120443.09375,0.0
1713489603.5670812,135011.34375,131482.265625,171592.03125,190622.390625,129788.5390625,142122.5,123668.71875,120508.0078125,0.0
1713489603.5713134,135026.984375,131551.734375,171574.765625,190675.671875,129920.953125,142172.5625,123716.8203125,120531.25,0.0
1713489603.5713205,134971.734375,131438.015625,171571.734375,190466.734375,129581.828125,142086.734375,123609.625,120452.75,0.0
1713489603.5713258,134957.875,131368.546875,171594.171875,190412.828125,129443.6953125,142039.0,123566.078125,120438.1796875,0.0
1713489603.5713313,134995.78125,131461.609375,171582.90625,190583.765625,129746.3359375,142108.203125,123653.078125,120499.78125,0.0
1713489603.584803,135020.015625,131543.234375,171570.203125,190664.328125,129917.640625,142162.28125,123707.1640625,120526.78125,0.0
1713489603.584813,134994.796875,131480.390625,171581.296875,190512.515625,129674.3671875,142114.28125,123641.6328125,120478.234375,0.0
1713489603.5848188,134963.765625,131372.734375,171599.625,190388.6875,129418.75,142034.53125,123560.09375,120434.78125,0.0
1713489603.5848236,134996.859375,131450.53125,171583.625,190548.09375,129700.296875,142093.4375,123636.7109375,120490.6640625,0.0
1713489603.5848289,135015.625,131527.59375,171557.515625,190639.203125,129894.3046875,142147.453125,123694.6484375,120520.4296875,0.0
1713489603.584834,134992.390625,131491.390625,171556.625,190531.015625,129741.5078125,142120.796875,123657.3671875,120486.546875,0.0
1713489603.584839,134946.96875,131356.828125,171580.9375,190356.859375,129403.28125,142027.734375,123558.0390625,120426.5546875,0.0
1713489603.584844,134987.203125,131431.484375,171583.890625,190513.21875,129660.5078125,142090.9375,123640.109375,120491.8203125,0.0
1713489603.5848498,135014.640625,131520.171875,171561.265625,190627.671875,129883.1328125,142146.1875,123697.328125,120528.75,0.0
1713489603.5848548,135000.875,131516.234375,171546.34375,190560.796875,129808.7421875,142133.9375,123672.4765625,120499.8671875,0.0
1713489603.5848598,134950.359375,131372.203125,171568.421875,190345.140625,129409.71875,142030.953125,123556.9609375,120423.15625,0.0
1713489603.5870998,134978.703125,131417.09375,171575.390625,190460.46875,129593.09375,142067.609375,123609.0,120467.328125,0.0
1713489603.589614,135014.828125,131516.859375,171561.1875,190594.671875,129851.6640625,142143.0625,123691.34375,120519.5390625,0.0
1713489603.5921054,135012.953125,131542.703125,171542.765625,190574.828125,129861.8515625,142157.375,123693.0390625,120507.6484375,0.0
1713489603.5951643,134955.734375,131393.75,171559.921875,190345.140625,129448.34375,142051.953125,123567.6875,120423.875,0.0
1713489603.5951712,134977.28125,131406.453125,171579.953125,190425.421875,129549.640625,142065.546875,123600.1484375,120462.40625,0.0
1713489603.5971248,135010.53125,131501.9375,171562.515625,190575.0,129827.96875,142135.734375,123683.921875,120517.390625,0.0
1713489603.5996263,135010.796875,131542.703125,171534.359375,190585.28125,129896.1875,142158.984375,123700.7265625,120513.90625,0.0
1713489603.6020677,134963.234375,131414.5,171551.078125,190365.4375,129512.6328125,142067.78125,123594.6015625,120441.3984375,0.0
1713489603.6046145,134968.59375,131386.0625,171571.90625,190377.953125,129493.9453125,142050.171875,123590.578125,120452.390625,0.0
1713489603.6071005,135004.0,131480.03125,171555.71875,190539.78125,129788.8046875,142116.25,123668.2734375,120508.71875,0.0
1713489603.6095777,135018.40625,131545.125,171535.4375,190592.078125,129918.09375,142158.796875,123709.1328125,120524.8125,0.0
1713489603.6126833,134964.3125,131429.0625,171531.671875,190381.890625,129575.484375,142072.25,123602.109375,120444.4375,0.0
1713489603.6126907,134951.25,131357.09375,171551.25,190322.703125,129430.4609375,142023.34375,123557.234375,120425.9296875,0.0
1713489603.6145828,135001.765625,131460.8125,171549.375,190501.25,129741.0625,142102.734375,123653.609375,120496.828125,0.0
1713489603.6171052,135022.328125,131533.9375,171529.171875,190577.0625,129907.5390625,142152.09375,123705.109375,120521.4140625,0.0
1713489603.627738,134988.359375,131461.703125,171532.921875,190421.140625,129658.0078125,142099.96875,123633.765625,120466.875,0.0
1713489603.6277697,134957.515625,131355.84375,171557.78125,190304.015625,129409.09375,142028.265625,123563.578125,120430.671875,0.0
1713489603.645919,134989.078125,131435.5,171542.578125,190464.140625,129688.4921875,142082.984375,123633.5859375,120484.3125,0.0
1713489603.6459324,135013.21875,131521.34375,171521.75,190560.796875,129889.03125,142142.625,123692.59375,120513.9921875,0.0
1713489603.6459384,134989.078125,131483.96875,171516.390625,190446.609375,129730.875,142111.859375,123649.6796875,120473.765625,0.0
1713489603.64853,134952.515625,131355.84375,171547.5,190278.625,129395.0625,142022.1875,123555.3515625,120423.15625,0.0
1713489603.652102,134991.40625,131427.1875,171547.140625,190429.984375,129647.546875,142073.859375,123626.7890625,120482.8828125,0.0
1713489603.652115,135020.640625,131516.421875,171527.203125,190542.640625,129874.640625,142136.890625,123698.1328125,120521.8671875,0.0
1713489603.652121,135001.140625,131508.546875,171511.734375,190474.15625,129799.5390625,142121.609375,123667.6484375,120490.3046875,0.0
1713489603.655898,134955.90625,131374.078125,171544.109375,190271.734375,129418.484375,142031.84375,123562.1484375,120426.6484375,0.0
1713489603.6621697,134982.375,131417.71875,171550.546875,190388.40625,129603.109375,142063.578125,123609.0,120471.3515625,0.0
1713489603.66654,135012.671875,131511.5,171530.609375,190520.375,129857.921875,142130.8125,123684.8125,120517.5703125,0.0
1713489603.6665761,135010.625,131537.703125,171513.796875,190499.375,129867.3046875,142148.875,123693.0390625,120509.2578125,0.0
1713489603.6758835,134959.921875,131398.21875,171535.25,190277.09375,129465.6015625,142053.5625,123585.75,120439.4296875,0.0
1713489603.6801648,134979.859375,131407.96875,171549.296875,190347.546875,129552.7734375,142063.046875,123606.2265625,120465.8046875,0.0
1713489603.6801808,135016.703125,131503.015625,171530.953125,190498.46875,129830.7421875,142134.390625,123685.796875,120517.0390625,0.0
1713489603.690251,135027.875,131550.578125,171513.703125,190520.46875,129906.46875,142166.125,123709.3984375,120522.7578125,0.0
1713489603.690264,134973.421875,131413.875,171524.171875,190295.4375,129517.0078125,142070.015625,123598.1796875,120444.9765625,0.0
1713489603.6964395,134969.578125,131375.328125,171536.5,190299.09375,129487.234375,142041.40625,123579.1328125,120448.4609375,0.0
1713489603.6964548,134998.375,131467.0625,171512.90625,190454.125,129776.6484375,142105.0625,123656.0234375,120499.6875,0.0
1713489603.7239788,135014.375,131535.375,171494.390625,190504.828125,129905.75,142148.703125,123697.328125,120515.78125,0.0
1713489603.7239933,134966.90625,131428.359375,171500.109375,190305.984375,129574.859375,142074.125,123603.453125,120446.4921875,0.0
1713489603.7503316,134946.96875,131353.875,171516.75,190247.5,129431.4453125,142021.109375,123557.765625,120427.8984375,0.0
1713489603.750368,134989.609375,131453.390625,171509.953125,190423.453125,129740.6171875,142096.9375,123646.4609375,120494.59375,0.0
1713489603.7784283,135006.59375,131526.96875,171488.140625,190498.109375,129908.078125,142148.34375,123700.28125,120519.09375,0.0
1713489603.7784421,134978.796875,131459.734375,171496.984375,190342.546875,129661.046875,142099.34375,123630.453125,120463.484375,0.0
1713489603.778448,134959.03125,131360.765625,171528.015625,190226.859375,129414.015625,142024.59375,123554.1015625,120423.0703125,0.0
1713489603.8027272,135008.03125,131457.140625,171531.671875,190400.75,129712.71875,142099.515625,123648.6015625,120492.8046875,0.0
1713489603.802759,135033.15625,131545.03125,171515.140625,190498.203125,129917.015625,142162.109375,123713.78125,120527.140625,0.0
1713489603.8271973,135001.5,131500.0625,171502.078125,190376.703125,129744.8203125,142119.46875,123650.125,120473.046875,0.0
1713489603.8509116,134966.015625,131376.40625,171530.6875,190208.078125,129410.6171875,142032.921875,123551.2421875,120416.3671875,0.0
1713489603.8533857,135000.609375,131442.21875,171525.15625,190356.234375,129660.5078125,142085.671875,123628.6640625,120476.53125,0.0
1713489603.8559315,135022.328125,131525.71875,171498.328125,190466.109375,129887.15625,142141.984375,123696.5234375,120516.5,0.0
1713489603.8583477,135016.34375,131529.828125,171496.09375,190407.28125,129820.3671875,142141.28125,123680.609375,120497.453125,0.0
1713489603.860969,134960.546875,131379.0,171514.15625,190191.8125,129421.7890625,142033.546875,123561.25,120417.8828125,0.0
1713489603.8634284,134986.9375,131415.296875,171516.390625,190306.421875,129599.625,142059.734375,123603.2734375,120459.28125,0.0
1713489603.865882,135022.6875,131508.734375,171500.734375,190443.84375,129857.921875,142131.171875,123684.1015625,120511.40625,0.0
1713489603.8708377,135015.359375,131525.8125,171477.671875,190418.71875,129858.6328125,142140.375,123685.53125,120497.0078125,0.0
1713489603.8733428,134959.65625,131378.734375,171492.6875,190189.390625,129447.359375,142030.6875,123565.2734375,120414.84375,0.0
1713489603.8758695,134979.59375,131387.9375,171506.109375,190257.34375,129534.265625,142038.28125,123585.9296875,120441.0390625,0.0
1713489603.8783712,135020.28125,131489.328125,171493.140625,190411.5625,129819.203125,142114.0,123665.859375,120494.953125,0.0
1713489603.8808203,135033.515625,131546.1875,171484.203125,190437.59375,129901.546875,142156.5625,123702.25,120509.8828125,0.0
1713489603.8833816,134971.8125,131410.65625,171491.0,190212.546875,129514.59375,142059.640625,123588.4375,120430.4921875,0.0
1713489603.8858738,134970.484375,131378.46875,171507.453125,190221.046875,129493.671875,142040.6875,123583.0703125,120441.1328125,0.0
1713489603.88833,135009.28125,131482.171875,171496.546875,190390.015625,129798.8203125,142119.1875,123678.5546875,120506.9296875,0.0
1713489603.8908718,135022.609375,131546.8125,171477.140625,190440.09375,129925.2421875,142159.6875,123718.609375,120521.59375,0.0
1713489603.8933623,134978.171875,131439.796875,171483.84375,190242.046875,129592.46875,142077.53125,123619.28125,120452.125,0.0
1713489603.895862,134968.421875,131369.875,171506.109375,190186.0,129451.8359375,142023.703125,123572.96875,120433.4375,0.0
1713489603.898394,135028.765625,131485.3125,171513.96875,190372.859375,129771.1015625,142112.9375,123675.15625,120508.9921875,0.0
1713489603.9008403,135043.875,131554.953125,171487.78125,190440.265625,129928.1015625,142151.828125,123705.6484375,120520.7890625,0.0
1713489603.9033616,135002.9375,131477.4375,171483.84375,190276.921875,129667.9296875,142087.359375,123617.3125,120454.984375,0.0
1713489603.9058375,134966.984375,131372.109375,171501.90625,190154.703125,129416.875,142011.640625,123538.453125,120411.8046875,0.0
1713489603.9083643,135002.75,131460.71875,171493.5,190321.625,129708.6953125,142081.546875,123631.53125,120479.84375,0.0
1713489603.910875,135022.6875,131542.34375,171472.40625,190419.796875,129910.21875,142143.515625,123701.53125,120520.1640625,0.0
1713489603.913372,134994.265625,131498.71875,171462.5625,190300.53125,129745.1796875,142110.4375,123650.484375,120477.0703125,0.0
1713489603.9158647,134957.25,131372.734375,171491.625,190132.078125,129415.53125,142029.15625,123560.359375,120423.875,0.0
1713489603.9183147,134994.4375,131437.03125,171489.390625,190280.046875,129665.0703125,142077.96875,123629.5625,120478.0546875,0.0
1713489603.9208791,135028.859375,131527.59375,171475.53125,190397.171875,129893.859375,142139.84375,123696.171875,120516.5859375,0.0
1713489603.92332,135023.5,131530.453125,171474.1875,190341.109375,129829.3984375,142137.96875,123683.7421875,120499.421875,0.0
1713489603.925861,134964.484375,131377.03125,171489.390625,190126.546875,129434.3125,142030.765625,123567.9609375,120423.9609375,0.0
1713489603.9398043,134990.59375,131419.140625,171493.140625,190243.125,129619.3828125,142069.390625,123624.4609375,120471.8828125,0.0
1713489603.9398177,135020.015625,131509.359375,171469.53125,190372.671875,129868.2890625,142129.296875,123692.6796875,120513.9921875,0.0
1713489603.9398232,135016.703125,131532.0625,171452.90625,190349.4375,129870.703125,142134.484375,123692.234375,120503.359375,0.0
1713489603.9398282,134980.9375,131406.890625,171490.734375,190141.65625,129481.0703125,142050.796875,123588.1640625,120439.34375,0.0
1713489603.939834,135004.453125,131419.953125,171508.4375,190218.453125,129577.1796875,142065.734375,123616.2421875,120472.6015625,0.0
1713489603.939839,135036.015625,131517.484375,171492.25,190369.015625,129858.3671875,142139.578125,123707.703125,120533.9296875,0.0
1713489603.939844,135025.375,131554.328125,171460.515625,190375.625,129921.6640625,142155.84375,123717.625,120525.890625,0.0
1713489603.939849,134962.703125,131414.140625,171462.75,190142.1875,129523.4453125,142048.734375,123587.2734375,120434.15625,0.0
1713489603.9398544,134973.609375,131393.65625,171487.78125,190159.625,129512.5390625,142041.40625,123589.1484375,120451.140625,0.0
1713489603.9398592,135018.765625,131498.71875,171479.28125,190326.8125,129815.6328125,142122.859375,123685.9765625,120519.09375,0.0
1713489603.9398642,135029.3125,131558.4375,171453.4375,190373.125,129940.4453125,142161.390625,123727.5546875,120534.9140625,0.0
1713489603.9398692,134978.890625,131447.390625,171454.875,190168.46875,129603.375,142081.015625,123624.109375,120458.3828125,0.0
1713489603.9398744,134968.25,131382.484375,171480.09375,190118.140625,129469.1796875,142036.484375,123578.6875,120442.6484375,0.0
1713489603.93988,135011.875,131482.71875,171476.0625,190294.0,129776.109375,142119.734375,123679.1796875,120511.7578125,0.0
1713489603.939885,135026.625,131552.890625,171451.296875,190367.671875,129938.1171875,142163.8125,123724.6875,120531.4296875,0.0
1713489603.93989,134986.75,131476.625,171447.546875,190205.125,129681.25,142103.375,123641.8984375,120467.6796875,0.0
1713489603.9471312,134961.453125,131373.8125,171472.84375,190088.453125,129437.171875,142034.53125,123572.4296875,120430.3984375,0.0
1713489603.9496253,135001.859375,131459.46875,171464.796875,190251.984375,129726.046875,142099.4375,123654.234375,120490.5703125,0.0
1713489603.9527955,135021.625,131536.453125,171439.59375,190339.328125,129916.65625,142151.375,123709.9375,120518.015625,0.0
1713489603.9528108,134992.390625,131491.203125,171426.625,190218.625,129746.609375,142116.328125,123657.1875,120469.3828125,0.0
1713489603.9547136,134957.0625,131368.0,171456.75,190054.296875,129418.3046875,142030.59375,123563.0390625,120415.5625,0.0
1713489603.9572034,134995.25,131440.0625,171459.875,190210.765625,129674.8125,142087.1875,123639.0390625,120478.0546875,0.0
1713489603.9596982,135024.296875,131532.78125,171446.734375,190329.578125,129904.5,142157.09375,123715.390625,120526.0625,0.0
1713489603.9622183,135010.171875,131528.84375,171435.921875,190265.03125,129832.4375,142150.671875,123693.7578125,120501.125,0.0
1713489603.9647033,134955.640625,131381.59375,171453.359375,190054.296875,129439.671875,142042.75,123573.4140625,120425.84375,0.0
1713489603.9672227,134980.578125,131421.375,171452.734375,190170.265625,129621.6171875,142070.5625,123623.5703125,120472.8671875,0.0
1713489603.9702847,135012.40625,131515.34375,171436.28125,190302.671875,129873.1171875,142139.84375,123702.25,120521.7734375,0.0
1713489603.9703145,135006.953125,131538.953125,171420.359375,190278.53125,129878.75,142156.46875,123706.2734375,120511.9375,0.0
1713489603.9803011,134945.4375,131389.90625,171431.09375,190046.703125,129467.9296875,142049.09375,123580.8359375,120426.8203125,0.0
1713489603.980314,134962.703125,131402.96875,171443.4375,190119.296875,129567.1640625,142063.765625,123609.625,120458.7421875,0.0
1713489603.9827633,135000.34375,131502.03125,171432.078125,190270.21875,129847.015625,142139.40625,123694.203125,120516.859375,0.0
1713489603.9827712,135005.34375,131547.71875,171413.921875,190289.0,129918.1796875,142165.859375,123713.875,120518.6484375,0.0
1713489603.9897037,134959.03125,131422.71875,171431.265625,190073.703125,129535.3359375,142077.796875,123608.375,120445.5078125,0.0
1713489604.0053449,134965.65625,131399.5625,171450.046875,190089.4375,129522.8203125,142067.609375,123607.921875,120459.28125,0.0
1713489604.005358,135000.15625,131493.796875,171431.546875,190245.1875,129813.6640625,142136.984375,123689.640625,120514.796875,0.0
1713489604.0083356,135015.1875,131557.546875,171413.21875,190291.5,129934.6328125,142174.09375,123720.1328125,120525.53125,0.0
1713489604.0083487,134970.484375,131451.59375,171420.453125,190091.21875,129603.0234375,142094.421875,123625.5390625,120454.6328125,0.0
1713489604.0083551,134970.5625,131397.15625,171454.703125,190053.5,129484.5546875,142061.96875,123604.5234375,120456.953125,0.0
1713489604.012276,135003.828125,131485.21875,171437.53125,190218.546875,129782.1953125,142129.5625,123687.40625,120512.2109375,0.0
1713489604.0197518,135026.359375,131560.671875,171421.53125,190297.578125,129949.6484375,142183.75,123745.8828125,120543.140625,0.0
1713489604.0240648,134987.015625,131481.546875,171418.125,190134.5,129688.671875,142120.09375,123656.3828125,120478.765625,0.0
1713489604.0240774,134967.96875,131386.78125,171448.96875,190024.53125,129452.7265625,142052.671875,123586.734375,120444.2578125,0.0
1713489604.0309892,135019.203125,131482.71875,171451.65625,190199.765625,129753.578125,142130.8125,123685.9765625,120517.5703125,0.0
1713489604.0377536,135042.0,131563.0,171430.203125,190290.6875,129945.984375,142187.765625,123739.3515625,120543.0546875,0.0
1713489604.0378013,135010.4375,131519.734375,171420.28125,190169.1875,129775.7578125,142151.015625,123689.5546875,120497.0078125,0.0
1713489604.0478747,134964.84375,131388.828125,171440.65625,189996.625,129440.75,142054.1875,123586.828125,120436.03125,0.0
1713489604.0478895,135000.34375,131454.375,171438.515625,190148.359375,129689.4765625,142100.6875,123652.09375,120491.015625,0.0
1713489604.0541155,135025.828125,131538.140625,171418.125,190262.53125,129912.28125,142160.5,123720.7578125,120530.890625,0.0
1713489604.0541284,135012.671875,131531.53125,171407.84375,190197.171875,129835.4765625,142150.390625,123697.2421875,120504.875,0.0
1713489604.059686,134963.140625,131391.25,171431.265625,189990.109375,129447.8984375,142052.5,123586.375,120432.8125,0.0
1713489604.0640996,134996.859375,131443.640625,171442.171875,190114.5625,129642.984375,142097.90625,123648.9609375,120488.0703125,0.0
1713489604.0641124,135031.71875,131539.9375,171428.5,190246.53125,129891.71875,142166.3125,123718.4296875,120534.46875,0.0
1713489604.073402,135026.71875,131563.171875,171410.796875,190225.15625,129897.6171875,142176.328125,123718.34375,120523.296875,0.0
1713489604.07776,134970.203125,131417.453125,171427.15625,189999.671875,129489.7421875,142073.328125,123601.484375,120444.2578125,0.0
1713489604.0778089,134989.25,131429.96875,171439.140625,190074.140625,129587.28125,142082.0,123619.7265625,120471.9765625,0.0
1713489604.0840445,135019.390625,131522.234375,171420.359375,190217.734375,129859.8828125,142154.953125,123705.1953125,120526.78125,0.0
1713489604.084058,135019.65625,131563.0,171395.953125,190226.59375,129928.8203125,142182.046875,123730.59375,120526.78125,0.0
1713489604.1546535,134969.140625,131431.390625,171408.46875,190002.71875,129542.3125,142087.90625,123614.1796875,120446.1328125,0.0
1713489604.2077992,134976.015625,131405.28125,171426.890625,190019.15625,129532.4765625,142075.109375,123612.3984375,120459.8125,0.0
1713489604.207821,135009.546875,131495.9375,171409.015625,190175.71875,129820.546875,142141.28125,123695.1875,120517.2109375,0.0
1713489604.2078264,135015.625,131550.484375,171381.390625,190217.28125,129940.3515625,142171.9375,123728.53125,120524.9921875,0.0
1713489604.2078316,134965.03125,131439.890625,171383.34375,190015.140625,129601.5,142088.265625,123627.4140625,120449.625,0.0
1713489604.2078376,134968.78125,131391.25,171420.71875,189982.59375,129487.328125,142058.9375,123598.890625,120451.5859375,0.0
1713489604.2078426,135004.8125,131484.859375,171406.859375,190151.75,129787.2890625,142132.6875,123687.40625,120515.9609375,0.0
1713489604.207848,135012.859375,131544.578125,171374.953125,190216.390625,129939.546875,142170.78125,123725.671875,120529.5546875,0.0
1713489604.2121787,134970.484375,131460.625,171368.421875,190050.90625,129677.9453125,142105.6875,123642.2578125,120464.4609375,0.0
1713489604.2372544,134957.0625,131373.28125,171406.953125,189950.859375,129450.671875,142046.953125,123586.2890625,120440.5,0.0
1713489604.2534685,134996.046875,131462.234375,171400.96875,190117.0625,129744.375,142116.0625,123674.890625,120505.3203125,0.0
1713489604.2559352,135013.65625,131538.6875,171376.828125,190203.78125,129931.5,142168.8125,123732.828125,120533.9296875,0.0
1713489604.260965,134990.5,131498.71875,171370.203125,190088.71875,129764.84375,142132.78125,123679.984375,120489.40625,0.0
1713489604.263471,134954.296875,131373.640625,171396.765625,189917.78125,129428.3203125,142039.53125,123573.234375,120427.453125,0.0
1713489604.2659364,134994.4375,131449.8125,171396.671875,190071.734375,129686.078125,142098.0,123646.4609375,120484.3125,0.0
1713489604.268464,135024.484375,131535.640625,171378.25,190184.125,129906.46875,142158.984375,123713.15625,120523.1171875,0.0
1713489604.2708433,135011.78125,131528.40625,171365.921875,190119.296875,129834.671875,142147.796875,123691.96875,120498.53125,0.0
1713489604.2733324,134960.203125,131384.984375,171389.078125,189910.796875,129442.625,142046.953125,123582.7109375,120430.1328125,0.0
1713489604.2758636,134994.171875,131437.296875,171399.359375,190039.546875,129639.9453125,142089.328125,123643.421875,120484.046875,0.0
1713489604.2783663,135022.78125,131526.796875,171380.9375,190166.0625,129883.1328125,142154.78125,123715.125,120525.890625,0.0
1713489604.2808156,135015.984375,131547.53125,171360.46875,190140.125,129887.6953125,142159.34375,123707.4375,120509.1640625,0.0
1713489604.2833812,134958.953125,131401.359375,171376.015625,189908.125,129476.421875,142055.890625,123591.296875,120429.953125,0.0
1713489604.2858748,134979.515625,131418.078125,171389.515625,189987.328125,129580.3125,142074.578125,123623.5703125,120463.484375,0.0
1713489604.288427,135015.8125,131511.5,171374.765625,190137.8125,129850.859375,142144.40625,123702.6953125,120518.9140625,0.0
1713489604.2909288,135024.5625,131559.953125,171359.921875,190161.859375,129932.578125,142180.96875,123738.7265625,120533.3046875,0.0
1713489604.2934449,134962.796875,131419.859375,171364.21875,189930.734375,129535.7890625,142078.875,123612.21875,120444.171875,0.0
1713489604.2984238,134959.125,131385.703125,171372.984375,189938.25,129516.3828125,142051.515625,123597.4609375,120447.296875,0.0
1713489604.3009176,134994.078125,131476.1875,171353.75,190088.71875,129799.0,142112.671875,123670.5078125,120498.171875,0.0
1713489604.3034503,135022.6875,131552.890625,171348.296875,190149.078125,129936.953125,142169.796875,123724.3359375,120527.3203125,0.0
1713489604.305918,134982.1875,131453.203125,171361.53125,189954.515625,129611.15625,142100.6875,123638.9453125,120465.625,0.0
1713489604.3083174,134971.90625,131390.171875,171387.1875,189908.921875,129483.3046875,142058.390625,123600.328125,120451.140625,0.0
1713489604.3109279,135009.28125,131484.59375,171374.5,190078.53125,129783.890625,142131.265625,123691.34375,120512.7421875,0.0
1713489604.3133707,135020.015625,131547.625,171345.625,190143.53125,129935.96875,142165.421875,123727.90625,120530.359375,0.0
1713489604.316417,134984.25,131472.078125,171345.171875,189982.140625,129678.4765625,142102.921875,123637.96875,120465.8046875,0.0
1713489604.316425,134952.78125,131368.0,171365.109375,189863.140625,129436.09375,142032.296875,123571.0,120427.09375,0.0
1713489604.318352,135010.625,131473.5,171377.625,190047.0625,129744.8203125,142118.5625,123674.3515625,120507.3828125,0.0
1713489604.3208735,135030.375,131552.625,171355.09375,190138.609375,129936.7734375,142171.859375,123726.2109375,120532.6796875,0.0
1713489604.3233223,134996.3125,131506.5,171343.46875,190016.921875,129766.1875,142134.84375,123679.0,120489.140625,0.0
1713489604.3283613,134955.640625,131379.984375,171369.140625,189850.1875,129438.3359375,142042.921875,123585.3046875,120435.046875,0.0
1713489604.3348947,134994.53125,131450.703125,171369.84375,190005.21875,129691.0,142094.15625,123651.8203125,120489.5859375,0.0
1713489604.3349042,135023.859375,131538.328125,171350.984375,190122.421875,129916.3046875,142158.078125,123725.2265625,120532.859375,0.0
1713489604.3349097,135011.78125,131533.671875,171342.40625,190055.46875,129839.7734375,142152.0,123706.0,120508.2734375,0.0
1713489604.3349144,134957.609375,131387.671875,171360.109375,189844.90625,129447.71875,142045.4375,123584.859375,120429.953125,0.0
1713489604.334921,134985.40625,131429.6875,171364.484375,189963.015625,129633.7734375,142083.34375,123638.9453125,120476.7109375,0.0
1713489604.334926,135015.625,131520.265625,171343.65625,190090.78125,129882.6875,142149.765625,123709.671875,120518.2890625,0.0
1713489604.3371217,135010.09375,131541.1875,171325.328125,190061.71875,129883.0390625,142158.078125,123704.75,120502.8203125,0.0
1713489604.3395956,134958.3125,131403.765625,171348.296875,189842.578125,129487.59375,142063.3125,123599.34375,120433.4375,0.0
1713489604.3438828,134972.890625,131413.515625,171358.046875,189911.25,129579.953125,142069.296875,123620.4375,120460.0859375,0.0
1713489604.343905,135009.8125,131509.984375,171341.234375,190061.1875,129857.5625,142139.84375,123700.640625,120513.015625,0.0
1713489604.3439107,135018.21875,131557.546875,171324.515625,190079.25,129930.1640625,142173.375,123727.375,120520.2578125,0.0
1713489604.343916,134967.078125,131427.453125,171337.125,189856.703125,129545.6171875,142081.1875,123615.34375,120442.9140625,0.0
1713489604.3743675,134972.890625,131402.25,171355.015625,189873.15625,129533.1953125,142070.203125,123616.1484375,120455.7890625,0.0
1713489604.3743951,135011.515625,131500.328125,171340.796875,190037.140625,129829.9375,142144.578125,123707.609375,120518.2890625,0.0
1713489604.374402,135023.3125,131561.390625,171320.234375,190085.140625,129949.203125,142177.125,123735.59375,120528.9296875,0.0
1713489604.3744075,134972.890625,131454.1875,171325.953125,189885.046875,129616.875,142100.6875,123639.75,120458.296875,0.0
1713489604.3744133,134956.984375,131384.90625,171343.921875,189833.015625,129483.5703125,142050.078125,123595.5859375,120443.8125,0.0
1713489604.374418,135004.09375,131485.84375,171338.828125,190007.265625,129789.96875,142127.859375,123686.78125,120510.8671875,0.0
1713489604.374423,135029.484375,131562.28125,171323.359375,190083.171875,129957.515625,142179.359375,123742.75,120541.171875,0.0
1713489604.374428,134991.40625,131485.03125,171319.78125,189918.671875,129698.5078125,142123.03125,123666.3046875,120478.234375,0.0
1713489604.3744328,134955.640625,131373.453125,171333.546875,189794.75,129444.4140625,142037.03125,123578.1484375,120429.953125,0.0
1713489604.3744378,135000.25,131465.015625,171331.3125,189966.59375,129737.84375,142107.84375,123667.3828125,120496.5625,0.0
1713489604.3759727,135031.8125,131554.234375,171321.03125,190070.921875,129942.5,142175.25,123739.9765625,120538.4921875,0.0
1713489604.3859882,134999.796875,131506.578125,171309.671875,189951.578125,129771.90625,142133.5,123682.84375,120487.796875,0.0
1713489604.3884935,134957.515625,131374.890625,171333.375,189784.203125,129439.3125,142037.203125,123580.7421875,120427.8046875,0.0
1713489604.3916,134996.5,131447.3125,171334.890625,189940.3125,129696.8046875,142098.984375,123659.78125,120491.9140625,0.0
1713489604.3916128,135018.046875,131532.78125,171311.828125,190051.96875,129921.578125,142165.328125,123734.5234375,120535.5390625,0.0
1713489604.393541,134998.546875,131520.265625,171294.03125,189977.140625,129837.1796875,142145.5625,123699.4765625,120501.125,0.0
1713489604.395948,134952.234375,131379.453125,171317.375,189770.078125,129450.9375,142044.359375,123583.875,120429.59375,0.0
1713489604.4010503,134986.125,131427.28125,171325.953125,189889.171875,129638.0703125,142083.609375,123636.8046875,120475.546875,0.0
1713489604.4034803,135017.59375,131517.3125,171305.390625,190014.953125,129884.203125,142149.40625,123711.546875,120517.3046875,0.0
1713489604.405935,135015.984375,131539.84375,171290.453125,189994.84375,129890.28125,142163.890625,123718.1640625,120509.2578125,0.0
1713489604.408469,134966.546875,131398.3125,171315.671875,189779.015625,129491.53125,142064.46875,123604.3515625,120438.71875,0.0
1713489604.410997,134988.71875,131413.515625,171331.9375,189856.53125,129592.109375,142077.796875,123632.6015625,120472.3359375,0.0
1713489604.4135437,135013.75,131502.828125,171305.75,189995.640625,129860.421875,142139.3125,123704.21875,120515.9609375,0.0
1713489604.415956,135016.703125,131545.65625,171284.640625,190008.34375,129927.2109375,142164.171875,123724.2421875,120517.5703125,0.0
1713489604.418423,134962.875,131411.453125,171294.65625,189782.953125,129538.0234375,142063.40625,123607.2109375,120437.375,0.0
1713489604.4209433,134973.078125,131390.625,171318.078125,189801.28125,129528.453125,142049.984375,123609.7109375,120453.1953125,0.0
1713489604.4234133,135018.671875,131494.515625,171310.9375,189970.703125,129830.46875,142132.6875,123710.1171875,120520.96875,0.0
1713489604.4270394,135035.828125,131556.734375,171292.78125,190018.8125,129948.4921875,142173.109375,123737.203125,120530.0859375,0.0
1713489604.4270523,134989.078125,131447.390625,171297.34375,189818.796875,129612.2265625,142092.734375,123637.25,120456.59375,0.0
1713489604.4270582,134974.0625,131378.28125,171315.765625,189765.609375,129477.671875,142040.78125,123589.4140625,120437.9140625,0.0
1713489604.429665,135011.25,131474.9375,171304.84375,189935.125,129781.65625,142112.671875,123677.9296875,120502.1953125,0.0
1713489604.432722,135035.125,131556.390625,171292.0625,190014.328125,129951.9765625,142167.296875,123733.6328125,120531.6953125,0.0
1713489604.4327617,134998.640625,131483.96875,171293.3125,189851.96875,129696.359375,142112.671875,123657.9921875,120469.7421875,0.0
1713489604.4346433,134970.125,131383.03125,171317.28125,189737.984375,129456.2109375,142041.765625,123588.078125,120432.9921875,0.0
1713489604.437148,135007.3125,131467.0625,171310.578125,189907.046875,129746.3359375,142104.796875,123669.703125,120496.296875,0.0
1713489604.4421978,135026.359375,131544.40625,171288.3125,189998.515625,129936.8671875,142159.78125,123726.5703125,120524.6328125,0.0
1713489604.444622,135005.4375,131507.828125,171286.171875,189886.65625,129776.3828125,142133.5,123681.234375,120483.6875,0.0
1713489604.44769,134964.3125,131375.421875,171306.90625,189714.109375,129442.53125,142040.25,123579.7578125,120423.25,0.0
1713489604.4477012,135006.953125,131450.34375,171310.296875,189872.09375,129701.28125,142100.59375,123659.78125,120488.421875,0.0
1713489604.4502175,135047.546875,131554.15625,171306.015625,190000.203125,129941.6015625,142179.09375,123748.296875,120542.4296875,0.0
1713489604.450235,135026.359375,131542.53125,171288.046875,189927.078125,129857.7421875,142162.203125,123713.2421875,120507.3828125,0.0
1713489604.4745958,134968.59375,131392.140625,171304.3125,189715.453125,129463.3671875,142051.953125,123592.546875,120433.796875,0.0
1713489604.5001826,134992.109375,131431.21875,171304.046875,189834.359375,129649.6015625,142083.15625,123641.1875,120480.6484375,0.0
1713489604.5001955,135017.0625,131518.296875,171282.3125,189960.6875,129895.9140625,142150.671875,123717.265625,120527.046875,0.0
1713489604.5114129,135011.78125,131541.71875,171267.65625,189936.734375,129902.1796875,142162.109375,123720.1328125,120517.6640625,0.0
1713489604.511449,134952.15625,131395.453125,171280.625,189704.265625,129490.0078125,142052.859375,123594.6953125,120433.171875,0.0
1713489604.5114648,134976.734375,131415.75,171296.265625,189782.5,129593.5390625,142073.0625,123631.53125,120470.2734375,0.0
1713489604.5114784,135018.765625,131521.15625,171285.1875,189937.625,129877.5,142155.21875,123725.4921875,120531.6953125,0.0
1713489604.535261,135030.734375,131570.328125,171270.96875,189956.9375,129949.7421875,142186.6875,123748.5625,120536.8828125,0.0
1713489604.5352905,134978.96875,131439.34375,171283.484375,189734.21875,129565.734375,142095.234375,123638.0546875,120458.828125,0.0
1713489604.5858245,134978.890625,131408.765625,171298.328125,189744.140625,129546.6953125,142071.53125,123626.703125,120464.109375,0.0
1713489604.5858386,135020.71875,131510.515625,171287.78125,189911.0625,129845.40625,142147.09375,123711.8125,120524.546875,0.0
1713489604.5858445,135027.078125,131567.203125,171263.09375,189954.796875,129961.8984375,142182.84375,123743.109375,120533.578125,0.0
1713489604.594774,134972.171875,131455.890625,171264.078125,189749.421875,129625.1953125,142100.6875,123643.421875,120459.1015625,0.0
1713489604.5978508,134963.5,131396.171875,171290.359375,189701.40625,129498.953125,142066.265625,123614.71875,120450.0703125,0.0
1713489604.5978637,135008.296875,131498.09375,171285.09375,189876.375,129807.8515625,142143.78125,123708.953125,120519.625,0.0
1713489604.599787,135028.0625,131572.484375,171266.140625,189951.03125,129972.5390625,142189.90625,123753.4765625,120542.875,0.0
1713489604.6022074,134993.71875,131499.703125,171268.90625,189788.9375,129717.28125,142132.328125,123674.796875,120482.2578125,0.0
1713489604.604744,134967.171875,131399.46875,171296.265625,189677.09375,129478.2109375,142062.421875,123605.9609375,120446.3125,0.0
1713489604.6072502,135005.078125,131485.84375,171290.640625,189846.875,129773.25,142132.96875,123699.8359375,120515.78125,0.0
1713489604.6097424,135021.0,131561.5625,171264.53125,189939.328125,129966.8203125,142187.328125,123756.34375,120547.5234375,0.0
1713489604.6122117,134988.546875,131515.796875,171252.640625,189818.53125,129796.5,142148.609375,123701.0,120501.4765625,0.0
1713489604.6146247,134957.515625,131398.140625,171287.421875,189660.546875,129474.6328125,142066.71875,123609.984375,120450.6953125,0.0
1713489604.6171167,134997.84375,131471.890625,171290.1875,189817.375,129731.6796875,142123.03125,123689.109375,120513.1015625,0.0
1713489604.6196096,135026.8125,131560.9375,171270.078125,189929.3125,129954.65625,142182.765625,123755.890625,120549.21875,0.0
1713489604.6221738,135015.8125,131554.6875,171261.484375,189859.578125,129873.7421875,142170.15625,123728.359375,120518.9140625,0.0
1713489604.624693,134972.453125,131417.625,171291.265625,189658.9375,129493.9453125,142074.671875,123617.4921875,120451.234375,0.0
1713489604.6272056,135006.59375,131465.71875,171302.96875,189783.578125,129684.0234375,142114.984375,123674.0859375,120502.015625,0.0
1713489604.6296978,135037.984375,131555.84375,171282.765625,189914.46875,129933.734375,142178.296875,123746.6875,120545.2890625,0.0
1713489604.6321397,135030.03125,131570.328125,171261.3125,189884.6875,129927.65625,142181.953125,123741.40625,120528.5703125,0.0
1713489604.6347003,134970.125,131418.78125,171273.296875,189655.90625,129514.59375,142075.390625,123618.921875,120447.2109375,0.0
1713489604.6372,134992.65625,131432.828125,171287.59375,189734.21875,129614.375,142091.296875,123649.859375,120482.4375,0.0
1713489604.6395907,135030.921875,131534.484375,171273.375,189885.046875,129895.5625,142168.28125,123737.1171875,120539.5625,0.0
1713489604.6421404,135037.09375,131581.59375,171256.484375,189898.546875,129966.1875,142194.734375,123761.34375,120543.765625,0.0
1713489604.6445642,134981.65625,131447.84375,171268.109375,189670.46875,129577.359375,142094.421875,123643.5078125,120460.796875,0.0
1713489604.6471395,134987.015625,131425.484375,171289.65625,189687.1875,129566.453125,142081.46875,123638.5,120471.53125,0.0
1713489604.6495926,135026.71875,131528.125,171278.203125,189854.828125,129868.203125,142160.765625,123731.5703125,120536.8828125,0.0
1713489604.6521482,135034.578125,131583.65625,171253.4375,189900.34375,129990.1484375,142197.6875,123765.640625,120548.6875,0.0
1713489604.6557925,134989.078125,131476.625,171262.03125,189703.828125,129660.8671875,142123.3125,123675.875,120483.1484375,0.0
1713489604.6558056,134974.234375,131405.28125,171278.5625,189649.546875,129523.8046875,142074.84375,123631.2578125,120465.09375,0.0
1713489604.6558113,135019.734375,131503.71875,171268.8125,189821.125,129826.8046875,142149.765625,123719.234375,120528.5703125,0.0
1713489604.659616,135041.46875,131582.578125,171250.765625,189896.5,129993.90625,142204.9375,123777.53125,120557.1796875,0.0
1713489604.6596265,135003.921875,131509.71875,171251.921875,189734.140625,129737.7578125,142152.453125,123704.9296875,120498.2578125,0.0
1713489604.659632,134972.171875,131402.25,171269.625,189611.375,129486.2578125,142070.90625,123620.796875,120452.390625,0.0
1713489604.663273,135009.453125,131485.65625,171257.640625,189774.640625,129772.265625,142131.265625,123697.15625,120509.703125,0.0
1713489604.6633072,135024.03125,131562.28125,171229.921875,189862.703125,129962.2578125,142184.734375,123757.0546875,120536.796875,0.0
1713489604.663316,135002.671875,131524.828125,171227.515625,189747.546875,129797.390625,142150.671875,123704.75,120494.328125,0.0
1713489604.6670945,134961.0,131390.4375,171248.703125,189575.34375,129463.90625,142056.875,123605.8671875,120437.5546875,0.0
1713489604.6671245,134993.8125,131454.90625,171241.46875,189723.671875,129715.046875,142112.21875,123681.234375,120496.828125,0.0
1713489604.6671405,135019.390625,131544.3125,171221.25,189837.046875,129941.25,142180.34375,123755.625,120540.1953125,0.0
1713489604.6702511,135003.109375,131536.0,171209.0,189770.703125,129864.4453125,142169.703125,123730.6796875,120512.3828125,0.0
1713489604.6702807,134955.1875,131391.703125,171234.578125,189563.359375,129473.203125,142068.046875,123615.703125,120441.7578125,0.0
1713489604.6721935,134984.0625,131435.234375,171239.765625,189685.9375,129659.078125,142093.09375,123659.2421875,120485.65625,0.0
1713489604.6746464,135028.59375,131542.53125,171235.03125,189830.328125,129921.84375,142170.421875,123750.3515625,120543.234375,0.0
1713489604.6771822,135030.734375,131569.609375,171221.875,189807.09375,129927.03125,142180.609375,123742.6640625,120525.0859375,0.0
1713489604.6796403,134975.390625,131421.5625,171236.1875,189576.328125,129512.2734375,142073.59375,123612.6640625,120437.9140625,0.0
1713489604.6821132,134985.328125,131422.453125,171237.34375,189642.484375,129601.3203125,142077.796875,123635.375,120465.8984375,0.0
1713489604.6871843,135018.3125,131518.65625,171219.640625,189789.75,129880.8046875,142152.0,123719.234375,120520.96875,0.0
1713489604.6902542,135031.09375,131574.625,171210.078125,189813.53125,129964.578125,142192.15625,123755.625,120532.859375,0.0
1713489604.6902857,134982.28125,131444.453125,171228.765625,189595.1875,129580.21875,142099.875,123646.7265625,120460.4375,0.0
1713489604.6921935,134981.203125,131411.546875,171243.78125,189605.75,129561.0859375,142074.671875,123620.265625,120460.9765625,0.0
1713489604.6983633,135014.46875,131510.34375,171228.9375,189767.21875,129858.2734375,142154.6875,123712.3515625,120523.7421875,0.0
1713489604.705227,135026.359375,131578.921875,171210.703125,189819.34375,129986.578125,142201.71875,123755.265625,120542.609375,0.0
1713489604.7052653,134980.5,131475.5625,171218.21875,189620.9375,129653.4453125,142125.0,123661.8359375,120475.8203125,0.0
1713489604.7127078,134971.109375,131407.34375,171236.546875,189566.140625,129517.8125,142077.34375,123621.9609375,120459.8125,0.0
1713489604.712719,135014.015625,131501.21875,171223.765625,189735.921875,129819.296875,142150.03125,123713.6953125,120524.90625,0.0
1713489604.7202177,135030.375,131569.171875,171198.90625,189807.359375,129980.3203125,142193.40625,123761.4375,120547.4375,0.0
1713489604.7202277,134993.359375,131490.046875,171196.84375,189642.765625,129719.7890625,142130.375,123684.546875,120486.28125,0.0
1713489604.7258923,134972.359375,131390.09375,171226.796875,189529.84375,129477.7578125,142061.796875,123614.453125,120449.9765625,0.0
1713489604.7327065,135014.734375,131480.828125,171225.09375,189701.40625,129775.578125,142133.140625,123703.859375,120519.09375,0.0
1713489604.732724,135039.140625,131566.75,171208.203125,189800.734375,129975.7578125,142194.296875,123769.125,120556.4609375,0.0
1713489604.7389576,135006.15625,131522.40625,171196.125,189683.265625,129808.921875,142159.515625,123720.21875,120513.640625,0.0
1713489604.738973,134958.59375,131387.046875,171216.6875,189509.625,129468.734375,142064.65625,123618.4765625,120454.453125,0.0
1713489604.7408872,134994.171875,131458.296875,171216.421875,189664.578125,129725.8671875,142124.734375,123696.8828125,120516.0546875,0.0
1713489604.7522318,135013.390625,131536.53125,171189.421875,189772.9375,129943.125,142174.984375,123747.84375,120543.859375,0.0
1713489604.7552726,134997.296875,131532.328125,171178.515625,189705.875,129870.4375,142164.796875,123727.1015625,120518.6484375,0.0
1713489604.755304,134947.953125,131391.703125,171205.78125,189498.640625,129483.6640625,142071.359375,123623.5703125,120449.9765625,0.0
1713489604.7609527,134984.515625,131440.421875,171218.390625,189622.828125,129675.3515625,142109.53125,123678.109375,120500.3203125,0.0
1713489604.7677665,135022.6875,131536.53125,171205.25,189757.921875,129928.28125,142171.3125,123748.5625,120548.2421875,0.0
1713489604.7677987,135017.78125,131556.03125,171185.40625,189731.1875,129927.4765625,142176.6875,123741.5859375,120529.734375,0.0
1713489604.7760084,134966.1875,131413.59375,171203.90625,189507.125,129518.796875,142074.484375,123624.9140625,120452.3046875,0.0
1713489604.795164,134986.390625,131426.75,171218.65625,189582.953125,129616.703125,142089.78125,123658.2578125,120488.3359375,0.0
1713489604.7951775,135022.609375,131529.03125,171205.515625,189737.53125,129901.1953125,142169.890625,123749.6328125,120548.59375,0.0
1713489604.795185,135029.484375,131580.078125,171190.234375,189753.359375,129971.734375,142195.8125,123758.84375,120545.109375,0.0
1713489604.7951906,134982.375,131457.234375,171211.0625,189532.703125,129588.625,142107.125,123648.875,120468.1328125,0.0
1713489604.7976816,134983.71875,131427.453125,171227.25,189540.390625,129571.640625,142089.875,123642.1640625,120475.546875,0.0
1713489604.7976913,135018.765625,131525.0,171212.5,189703.109375,129869.5390625,142165.0625,123733.453125,120539.7421875,0.0
1713489604.7996542,135029.84375,131587.5,171192.015625,189753.0,129994.890625,142207.890625,123773.1484375,120553.421875,0.0
1713489604.8034015,134979.515625,131471.890625,171194.4375,189549.5,129655.4140625,142118.75,123666.7578125,120476.890625,0.0
1713489604.8140268,134970.296875,131403.3125,171216.6875,189497.390625,129520.40625,142068.859375,123623.484375,120461.875,0.0
1713489604.8140397,135020.546875,131506.5,171211.78125,189674.046875,129828.4140625,142149.6875,123718.1640625,120530.0,0.0
1713489604.816418,135038.78125,131579.1875,171187.28125,189746.109375,129989.5234375,142196.703125,123763.3125,120547.5234375,0.0
1713489604.816428,135000.34375,131502.109375,171186.5625,189582.671875,129733.640625,142141.1875,123689.375,120487.171875,0.0
1713489604.841044,134971.734375,131397.328125,171212.40625,189466.453125,129489.3828125,142068.59375,123616.8671875,120451.234375,0.0
1713489604.8915763,135011.609375,131483.0625,171205.703125,189634.71875,129782.1015625,142137.34375,123706.0,120516.859375,0.0
1713489604.8915896,135038.875,131568.71875,171187.09375,189734.9375,129981.9296875,142197.875,123769.75,120553.3359375,0.0
1713489604.916046,135014.015625,131533.234375,171182.71875,189622.640625,129819.7421875,142170.6875,123730.3203125,120517.6640625,0.0
1713489604.9411044,134968.25,131400.8125,171205.4375,189447.671875,129482.3203125,142078.515625,123630.09375,120458.3828125,0.0
1713489604.9609823,135001.328125,131467.953125,171202.75,189598.140625,129731.765625,142127.234375,123693.21875,120511.9375,0.0
1713489604.963492,135028.140625,131554.421875,171184.0625,189713.75,129956.890625,142190.265625,123760.8125,120552.7109375,0.0
1713489604.965976,135015.09375,131552.625,171176.90625,189653.578125,129890.9140625,142184.90625,123748.3828125,120534.828125,0.0
1713489604.968508,134956.984375,131401.53125,171196.9375,189438.109375,129492.78125,142074.046875,123621.9609375,120454.8046875,0.0
1713489604.9710164,134989.25,131449.1875,171204.359375,189560.765625,129686.8828125,142113.5625,123676.9453125,120503.625,0.0
1713489604.9735072,135022.78125,131543.15625,171186.03125,189692.828125,129939.1015625,142182.5,123757.4140625,120552.4375,0.0
1713489604.9759932,135024.75,131569.265625,171170.828125,189671.546875,129943.8359375,142191.078125,123753.2109375,120538.5859375,0.0
1713489604.9785252,134965.03125,131419.140625,171183.609375,189439.890625,129527.7421875,142081.90625,123630.7265625,120456.4140625,0.0
1713489604.9810083,134979.234375,131428.796875,171194.34375,189514.015625,129621.5234375,142094.34375,123654.328125,120486.90625,0.0
1713489604.9835236,135017.328125,131528.484375,171181.828125,189669.578125,129903.9609375,142171.3125,123744.4453125,120547.703125,0.0
1713489604.985999,135023.234375,131572.921875,171162.609375,189684.0625,129972.8984375,142192.6875,123761.4375,120544.84375,0.0
1713489604.9885328,134979.0625,131448.203125,171182.1875,189466.453125,129592.3828125,142103.8125,123652.4453125,120468.3125,0.0
1713489605.0222695,134986.03125,131424.234375,171204.359375,189480.390625,129576.5546875,142092.1875,123649.765625,120478.234375,0.0
1713489605.024706,135025.109375,131524.734375,171190.40625,189644.28125,129876.875,142168.1875,123740.421875,120540.90625,0.0
1713489605.027217,135034.765625,131584.8125,171165.90625,189692.109375,129997.84375,142200.828125,123771.359375,120552.890625,0.0
1713489605.0296972,134982.015625,131473.5,171167.078125,189490.3125,129660.953125,142121.25,123674.265625,120480.46875,0.0
1713489605.0322008,134961.359375,131397.5,171179.6875,189428.265625,129518.265625,142071.625,123630.6328125,120459.6328125,0.0
1713489605.034681,135015.1875,131506.859375,171182.09375,189613.078125,129836.1953125,142157.1875,123730.140625,120537.1484375,0.0
1713489605.037207,135036.546875,131583.03125,171164.03125,189691.578125,130005.7109375,142205.03125,123779.40625,120562.546875,0.0
1713489605.039739,134994.796875,131501.75,171157.5,189521.875,129741.3359375,142139.21875,123692.234375,120494.5078125,0.0
1713489605.0421922,134969.5,131400.375,171181.640625,189404.40625,129493.5,142068.234375,123620.6171875,120455.8828125,0.0
1713489605.044717,135012.671875,131491.65625,171176.90625,189574.453125,129785.4140625,142139.21875,123708.0625,120521.1484375,0.0
1713489605.0472808,135037.265625,131577.484375,171159.5625,189673.25,129986.7578125,142201.265625,123776.6328125,120557.5390625,0.0
1713489605.0497463,135009.453125,131534.390625,171152.40625,189556.84375,129819.4765625,142169.265625,123729.875,120513.546875,0.0
1713489605.052189,134968.6875,131404.03125,171176.28125,189383.75,129484.109375,142080.03125,123628.7578125,120450.515625,0.0
1713489605.0546844,135012.5,131479.3125,171183.53125,189539.3125,129741.3359375,142140.5625,123708.5078125,120514.171875,0.0
1713489605.0571527,135043.609375,131567.5625,171167.34375,189657.78125,129969.9453125,142195.640625,123772.7890625,120555.3046875,0.0
1713489605.059641,135025.640625,131555.125,171150.265625,189584.28125,129884.828125,142171.140625,123729.515625,120517.390625,0.0
1713489605.0621157,134972.265625,131412.703125,171171.546875,189374.09375,129494.03125,142072.609375,123616.421875,120445.6015625,0.0
1713489605.072366,135005.34375,131463.578125,171182.09375,189499.171875,129686.6171875,142118.75,123678.375,120500.140625,0.0
1713489605.0723789,135038.96875,131557.71875,171166.625,189637.03125,129944.375,142190.890625,123760.453125,120551.546875,0.0
1713489605.0723853,135035.390625,131581.5,171151.78125,189617.8125,129952.0625,142205.828125,123770.1953125,120545.9140625,0.0
1713489605.0723908,134982.8125,131438.1875,171173.0625,189392.859375,129546.421875,142103.28125,123653.703125,120469.5625,0.0
1713489605.0723958,134996.40625,131441.140625,171178.875,189457.234375,129630.203125,142103.375,123663.984375,120490.75,0.0
1713489605.0724008,135025.828125,131530.1875,171154.734375,189597.25,129896.8984375,142169.625,123738.3671875,120535.8984375,0.0
1713489605.0724056,135032.890625,131577.03125,171134.4375,189616.5625,129973.078125,142199.65625,123762.5078125,120537.953125,0.0
1713489605.0724113,134979.421875,131445.4375,171146.0625,189392.6875,129582.7265625,142104.0,123646.8125,120459.0078125,0.0
1713489605.0724163,134976.015625,131413.6875,171158.578125,189402.703125,129564.578125,142083.34375,123637.1640625,120464.109375,0.0
1713489605.0724242,135003.375,131500.59375,171136.046875,189555.765625,129850.9453125,142145.65625,123712.3515625,120512.921875,0.0
1713489605.0724301,135029.484375,131577.84375,171128.8125,189621.296875,129992.390625,142198.140625,123763.046875,120539.921875,0.0
1713489605.0746036,134977.359375,131464.109375,171129.609375,189415.21875,129649.421875,142110.078125,123656.46875,120461.515625,0.0
1713489605.077212,134968.421875,131397.234375,171154.203125,189364.078125,129516.65625,142066.171875,123618.5625,120449.53125,0.0
1713489605.0796647,135011.78125,131497.203125,171146.328125,189536.1875,129824.65625,142142.703125,123712.796875,120519.1796875,0.0
1713489605.0822659,135031.1875,131577.65625,171127.46875,189616.65625,129994.4453125,142196.796875,123765.9921875,120546.2734375,0.0
1713489605.0846407,134998.28125,131509.0,171132.390625,189460.90625,129744.5546875,142149.953125,123699.2109375,120492.984375,0.0
1713489605.0871506,134965.5625,131398.84375,171151.875,189339.140625,129489.3828125,142071.625,123615.703125,120446.4921875,0.0
1713489605.0897124,135004.1875,131482.359375,171142.3125,189505.78125,129779.2421875,142137.796875,123704.75,120509.2578125,0.0
1713489605.0921962,135037.09375,131571.5,171129.171875,189609.046875,129981.4765625,142201.984375,123770.375,120546.2734375,0.0
1713489605.095756,135006.0625,131525.1875,171116.734375,189488.53125,129809.8203125,142158.078125,123707.34375,120496.0234375,0.0
1713489605.0957716,134956.984375,131386.328125,171135.0625,189310.25,129467.75,142057.0625,123603.09375,120434.6015625,0.0
1713489605.0957787,134991.75,131455.4375,171134.078125,189462.25,129722.46875,142110.96875,123674.4453125,120491.1953125,0.0
1713489605.0996275,135020.90625,131545.75,171116.203125,189577.046875,129949.5625,142173.015625,123740.9609375,120529.4609375,0.0
1713489605.099686,135012.5,131549.671875,171109.578125,189516.78125,129883.578125,142174.453125,123727.5546875,120510.6875,0.0
1713489605.0997205,134963.59375,131407.25,171135.953125,189308.46875,129491.171875,142071.359375,123612.75,120439.96875,0.0
1713489605.148393,134993.71875,131451.328125,171144.90625,189432.46875,129682.1484375,142105.25,123668.09375,120491.5546875,0.0
1713489605.1484067,135028.0625,131546.8125,171131.9375,189569.4375,129936.953125,142176.59375,123749.1015625,120545.375,0.0
1713489605.1484134,135020.28125,131566.046875,171110.390625,189541.109375,129937.7578125,142183.75,123742.03125,120526.0625,0.0
1713489605.1515985,134967.625,131423.703125,171130.0625,189315.34375,129531.8515625,142089.78125,123636.0859375,120454.1796875,0.0
1713489605.15163,134994.0,131445.34375,171149.640625,189397.421875,129638.15625,142112.125,123672.4765625,120497.1015625,0.0
