timestamps,Fz,C3,Cz,C4,Pz,PO7,Oz,PO8,stim
1713487682.7828894,155525.140625,147389.46875,224703.34375,208324.4375,148656.453125,160352.40625,131141.171875,141990.796875,0.0
1713487682.7828932,155480.890625,147397.328125,224678.046875,208284.921875,148651.265625,160350.890625,131136.703125,141973.8125,0.0
1713487682.7829063,155503.953125,147401.625,224682.96875,208297.53125,148657.171875,160354.375,131142.875,141980.796875,0.0
1713487682.7829103,155548.390625,147392.59375,224696.828125,208325.328125,148657.96875,160350.34375,131138.40625,141991.078125,0.0
1713487682.7829142,155542.125,147387.5,224690.03125,208319.875,148655.921875,160349.90625,131141.171875,141991.78125,0.0
1713487682.782918,155493.859375,147383.296875,224660.796875,208287.328125,148645.71875,160344.71875,131132.328125,141971.671875,0.0
1713487682.7829216,155495.1875,147380.078125,224653.015625,208284.65625,148641.25,160340.515625,131123.921875,141965.953125,0.0
1713487682.7829256,155548.125,147375.421875,224671.25,208313.625,148645.90625,160340.96875,131131.171875,141986.609375,0.0
1713487682.78293,155550.625,147378.296875,224671.78125,208313.4375,148651.0,160345.25,131142.703125,141992.859375,0.0
1713487682.782934,155510.578125,147389.109375,224654.0,208285.453125,148650.1875,160347.84375,131142.515625,141976.328125,0.0
1713487682.7854187,155492.25,147392.421875,224637.359375,208268.5625,148641.15625,160335.0625,131117.578125,141960.234375,0.0
1713487682.7879589,155546.515625,147393.3125,224660.609375,208303.421875,148651.453125,160339.703125,131126.875,141985.34375,0.0
1713487682.7909675,155559.296875,147394.65625,224667.5,208314.328125,148657.703125,160349.90625,131138.234375,141993.484375,0.0
1713487682.7909782,155517.546875,147392.859375,224642.546875,208283.671875,148649.125,160347.125,131129.203125,141973.734375,0.0
1713487682.7929015,155484.546875,147394.390625,224617.703125,208257.734375,148645.015625,160346.234375,131131.96875,141967.640625,0.0
1713487682.803482,155535.25,147394.03125,224636.296875,208282.421875,148650.375,160350.890625,131141.171875,141982.40625,0.0
1713487682.8034897,155562.34375,147397.421875,224651.671875,208299.671875,148657.96875,160355.71875,131146.359375,141993.125,0.0
1713487682.8059871,155531.40625,147396.171875,224632.71875,208274.09375,148650.46875,160346.421875,131132.328125,141982.046875,0.0
1713487682.805999,155489.921875,147397.328125,224602.953125,208243.96875,148640.09375,160339.078125,131116.953125,141962.546875,0.0
1713487682.807902,155532.46875,147397.515625,224620.203125,208271.15625,148650.90625,160344.53125,131130.359375,141985.625,0.0
1713487682.8103943,155564.390625,147398.5,224637.453125,208293.765625,148663.15625,160354.109375,131144.84375,142005.28125,0.0
1713487682.8134825,155537.390625,147393.21875,224623.515625,208276.96875,148662.625,160353.921875,131146.453125,141997.328125,0.0
1713487682.8134956,155485.265625,147388.84375,224588.546875,208238.25,148651.0,160345.078125,131136.265625,141975.609375,0.0
1713487682.8153884,155520.859375,147392.234375,224600.53125,208259.078125,148661.375,160352.859375,131154.234375,141996.609375,0.0
1713487682.8178995,155565.28125,147396.078125,224623.328125,208291.796875,148673.0,160361.34375,131168.796875,142019.6875,0.0
1713487682.8230271,155551.703125,147397.953125,224618.0625,208280.1875,148668.875,160357.140625,131156.109375,142004.03125,0.0
1713487682.8279502,155499.390625,147400.640625,224585.78125,208242.625,148655.5625,160350.171875,131137.15625,141972.296875,0.0
1713487682.830478,155519.6875,147408.15625,224588.1875,208254.609375,148660.390625,160357.5,131142.96875,141982.125,0.0
1713487682.8329527,155562.421875,147404.578125,224605.09375,208280.09375,148668.796875,160366.53125,131157.890625,142006.0,0.0
1713487682.8354428,155549.640625,147404.21875,224600.265625,208267.125,148672.453125,160372.96875,131160.484375,142005.28125,0.0
1713487682.8385222,155491.078125,147402.4375,224566.015625,208221.625,148662.890625,160365.453125,131145.734375,141983.296875,0.0
1713487682.838542,155488.390625,147406.71875,224559.671875,208225.734375,148667.625,160370.734375,131152.984375,141988.390625,0.0
1713487682.8629906,155535.515625,147403.40625,224577.640625,208252.203125,148676.390625,160381.90625,131173.453125,142011.90625,0.0
1713487682.8892443,155534.984375,147396.265625,224575.046875,208247.453125,148672.453125,160374.75,131165.234375,142011.09375,0.0
1713487682.8892553,155480.796875,147383.65625,224539.203125,208207.140625,148647.953125,160344.53125,131120.53125,141973.90625,0.0
1713487682.8892598,155467.125,147384.546875,224523.546875,208194.34375,148642.765625,160341.40625,131119.453125,141967.46875,0.0
1713487682.9430068,155524.421875,147386.25,224547.0625,208228.5,148653.40625,160347.75,131135.8125,141993.484375,0.0
1713487682.9992514,155539.8125,147387.671875,224553.59375,208238.78125,148658.15625,160350.265625,131141.453125,141999.390625,0.0
1713487683.0154595,155493.140625,147379.453125,224521.671875,208200.4375,148643.578125,160340.609375,131127.3125,141973.640625,0.0
1713487683.024859,155455.140625,147375.15625,224489.84375,208171.90625,148631.953125,160335.234375,131120.796875,141958.53125,0.0
1713487683.02487,155500.46875,147369.4375,224500.484375,208198.828125,148636.25,160338.015625,131128.65625,141973.90625,0.0
1713487683.0268512,155523.796875,147372.484375,224512.28125,208211.96875,148645.71875,160346.234375,131137.6875,141987.046875,0.0
1713487683.0293427,155496.53125,147372.390625,224497.4375,208188.09375,148643.484375,160345.25,131134.203125,141975.25,0.0
1713487683.0317757,155452.453125,147369.796875,224466.15625,208154.03125,148631.328125,160337.03125,131120.53125,141952.0,0.0
1713487683.0342903,155497.78125,147374.09375,224484.921875,208182.734375,148642.5,160347.046875,131138.40625,141978.5625,0.0
1713487683.03677,155530.859375,147375.25,224499.953125,208202.125,148649.65625,160353.84375,131146.984375,141993.046875,0.0
1713487683.0393307,155508.78125,147376.234375,224488.765625,208184.6875,148645.546875,160351.0625,131138.671875,141979.453125,0.0
1713487683.0417838,155457.375,147375.703125,224457.484375,208148.65625,148634.640625,160342.84375,131128.390625,141958.890625,0.0
1713487683.0442665,155492.25,147383.390625,224472.40625,208175.03125,148648.3125,160353.5625,131142.421875,141981.6875,0.0
1713487683.054204,155527.015625,147374.984375,224483.5,208195.953125,148651.796875,160355.53125,131146.625,141995.1875,0.0
1713487683.0567641,155512.890625,147370.6875,224474.109375,208185.046875,148648.5,160353.921875,131142.703125,141990.71875,0.0
1713487683.0592172,155453.890625,147364.515625,224435.75,208141.15625,148631.953125,160341.140625,131129.90625,141967.296875,0.0
1713487683.0616465,155467.921875,147365.78125,224436.015625,208143.390625,148631.234375,160338.71875,131126.875,141970.15625,0.0
1713487683.064186,155512.1875,147362.734375,224453.1875,208167.4375,148631.859375,160335.859375,131119.71875,141979.359375,0.0
1713487683.0667207,155506.375,147363.09375,224449.171875,208161.265625,148632.671875,160335.953125,131120.796875,141977.125,0.0
1713487683.069255,155452.09375,147359.96875,224414.921875,208121.03125,148621.9375,160326.125,131108.28125,141952.71875,0.0
1713487683.071745,155451.296875,147362.5625,224408.125,208121.84375,148621.671875,160323.96875,131107.109375,141950.21875,0.0
1713487683.0742028,155507.625,147367.828125,224436.921875,208157.609375,148639.375,160337.46875,131129.5625,141983.296875,0.0
1713487683.0767224,155528.8125,147386.34375,224458.015625,208177.8125,148666.203125,160364.65625,131169.25,142016.203125,0.0
1713487683.0792348,155479.09375,147380.796875,224427.171875,208140.703125,148651.453125,160354.640625,131151.453125,141987.765625,0.0
1713487683.0817049,155469.71875,147382.5,224413.84375,208125.859375,148644.296875,160348.109375,131128.921875,141969.4375,0.0
1713487683.0842144,155530.328125,147387.5,224442.640625,208160.546875,148661.8125,160361.34375,131149.046875,141999.5625,0.0
1713487683.0904627,155547.140625,147389.015625,224449.796875,208167.4375,148667.359375,160365.1875,131157.71875,142008.859375,0.0
1713487683.0930233,155512.8125,147390.09375,224431.90625,208146.96875,148662.0,160359.375,131150.03125,141991.25,0.0
1713487683.099177,155483.921875,147397.0625,224415.015625,208133.203125,148660.5625,160358.671875,131145.640625,141981.953125,0.0
1713487683.1038332,155533.015625,147398.5,224435.125,208163.765625,148668.96875,160362.0625,131150.75,142003.671875,0.0
1713487683.1038406,155552.5,147400.640625,224443.359375,208173.78125,148672.546875,160364.921875,131152.984375,142011.453125,0.0
1713487683.1038444,155519.78125,147401.53125,224423.859375,208148.484375,148666.90625,160363.671875,131151.1875,141998.9375,0.0
1713487683.1317604,155476.78125,147399.296875,224388.640625,208108.703125,148649.921875,160350.078125,131128.65625,141969.171875,0.0
1713487683.134298,155529.703125,147407.609375,224409.828125,208136.328125,148664.40625,160361.078125,131142.515625,141992.234375,0.0
1713487683.1367517,155563.40625,147409.140625,224425.296875,208158.046875,148677.375,160374.125,131162.09375,142016.203125,0.0
1713487683.168198,155534.796875,147401.984375,224406.515625,208134.625,148668.96875,160369.390625,131156.46875,141999.390625,0.0
1713487683.1682084,155495.734375,147408.953125,224385.5,208112.90625,148666.640625,160369.75,131153.609375,141985.34375,0.0
1713487683.168213,155539.625,147416.109375,224403.390625,208138.375,148679.875,160380.21875,131171.046875,142011.015625,0.0
1713487683.1682165,155579.59375,147409.84375,224414.75,208158.5,148681.484375,160378.953125,131172.828125,142025.3125,0.0
1713487683.16822,155569.21875,147408.328125,224406.703125,208147.859375,148678.984375,160376.09375,131165.859375,142016.90625,0.0
1713487683.1682246,155521.84375,147408.328125,224375.859375,208111.65625,148665.578125,160368.671875,131152.359375,141986.6875,0.0
1713487683.1682284,155531.84375,147400.734375,224368.4375,208111.5625,148655.375,160354.8125,131128.296875,141977.9375,0.0
1713487683.168232,155580.9375,147401.71875,224390.609375,208146.078125,148669.328125,160361.96875,131144.484375,142007.703125,0.0
1713487683.1682355,155587.1875,147412.796875,224398.296875,208154.390625,148682.5625,160374.671875,131162.71875,142019.953125,0.0
1713487683.168239,155551.609375,147428.890625,224382.828125,208128.28125,148685.15625,160381.640625,131165.9375,142009.484375,0.0
1713487683.1682432,155551.96875,147430.765625,224375.140625,208121.390625,148681.484375,160378.15625,131159.59375,142002.78125,0.0
1713487683.1682467,155601.140625,147427.375,224394.53125,208147.59375,148684.890625,160378.0625,131163.0,142018.15625,0.0
1713487683.1682503,155605.15625,147428.09375,224397.484375,208148.578125,148687.03125,160378.953125,131166.125,142022.359375,0.0
1713487683.168254,155559.5625,147429.25,224374.15625,208122.375,148683.09375,160377.265625,131160.84375,142008.78125,0.0
1713487683.1682584,155535.34375,147427.546875,224353.5,208101.28125,148677.375,160371.453125,131153.875,141997.78125,0.0
1713487683.168262,155588.984375,147430.0625,224377.109375,208134.453125,148690.703125,160381.375,131173.0,142026.390625,0.0
1713487683.1682658,155597.5625,147428.171875,224379.421875,208138.375,148690.875,160382.0,131171.21875,142027.640625,0.0
1713487683.1682694,155552.953125,147419.421875,224349.03125,208104.40625,148676.03125,160371.71875,131156.28125,142001.625,0.0
1713487683.168273,155524.515625,147423.4375,224330.078125,208087.78125,148675.859375,160376.359375,131164.421875,141996.703125,0.0
1713487683.1682768,155569.21875,147422.640625,224348.765625,208112.984375,148686.3125,160380.484375,131177.390625,142022.71875,0.0
1713487683.1756825,155581.109375,147412.71875,224349.65625,208114.421875,148680.953125,160370.90625,131168.890625,142021.296875,0.0
1713487683.1756942,155550.984375,147413.875,224332.578125,208087.953125,148675.9375,160372.078125,131170.328125,142008.953125,0.0
1713487683.1756997,155497.96875,147410.828125,224296.71875,208049.953125,148663.515625,160364.65625,131164.15625,141992.234375,0.0
1713487683.1757033,155542.9375,147413.421875,224314.78125,208081.515625,148673.34375,160369.390625,131178.375,142017.890625,0.0
1713487683.1826568,155566.984375,147404.75,224319.796875,208087.515625,148668.4375,160364.03125,131172.65625,142017.359375,0.0
1713487683.1826675,155539.09375,147398.765625,224301.90625,208060.953125,148657.171875,160355.71875,131152.890625,141993.578125,0.0
1713487683.1826725,155496.890625,147406.8125,224277.765625,208033.421875,148650.109375,160353.125,131133.75,141963.625,0.0
1713487683.1902156,155524.515625,147405.5625,224283.765625,208048.609375,148651.53125,160350.890625,131132.6875,141972.46875,0.0
1713487683.1902275,155562.421875,147402.515625,224298.6875,208072.9375,148661.375,160357.59375,131149.140625,142002.609375,0.0
1713487683.1902332,155549.28125,147399.296875,224290.734375,208067.296875,148663.96875,160363.3125,131154.046875,142006.984375,0.0
1713487683.3064623,155486.4375,147388.125,224249.96875,208027.421875,148645.015625,160350.171875,131128.65625,141977.578125,0.0
1713487683.3064816,155496.265625,147383.5625,224245.046875,208026.0,148645.71875,160349.453125,131133.75,141987.046875,0.0
1713487683.306486,155539.265625,147377.9375,224261.671875,208050.765625,148653.140625,160352.859375,131149.671875,142010.03125,0.0
1713487683.30649,155531.140625,147376.40625,224258.1875,208049.875,148651.625,160355.359375,131154.046875,142006.984375,0.0
1713487683.3064935,155480.171875,147378.5625,224226.90625,208007.9375,148635.4375,160344.265625,131133.75,141976.859375,0.0
1713487683.306497,155481.6875,147386.0625,224220.28125,207999.984375,148633.5625,160342.125,131133.40625,141973.734375,0.0
1713487683.306501,155538.203125,147388.84375,224243.34375,208031.984375,148642.234375,160345.96875,131147.078125,141995.90625,0.0
1713487683.3065045,155539.625,147385.4375,224241.46875,208027.703125,148637.59375,160336.9375,131135.453125,141986.15625,0.0
1713487683.306508,155490.453125,147382.21875,224214.734375,207993.359375,148624.4375,160323.34375,131108.28125,141949.140625,0.0
1713487683.3065124,155475.171875,147386.609375,224204.8125,207985.046875,148626.234375,160324.25,131106.125,141940.640625,0.0
1713487683.306516,155535.78125,147391.609375,224234.328125,208025.8125,148642.140625,160334.703125,131121.234375,141971.40625,0.0
1713487683.3065195,155553.578125,147391.171875,224241.03125,208036.71875,148645.640625,160338.375,131122.578125,141979.359375,0.0
1713487683.306523,155509.671875,147387.5,224213.484375,208005.171875,148637.40625,160337.46875,131118.828125,141967.015625,0.0
1713487683.306527,155470.96875,147386.34375,224186.671875,207980.3125,148630.171875,160335.421875,131109.796875,141955.21875,0.0
1713487683.3367383,155512.890625,147379.0,224202.046875,208008.65625,148640.359375,160341.671875,131125.796875,141983.03125,0.0
1713487683.3430967,155525.140625,147370.0625,224206.515625,208014.015625,148648.765625,160350.53125,131144.75,142003.5,0.0
1713487683.3456335,155491.34375,147365.859375,224188.546875,207993.984375,148646.890625,160351.328125,131143.765625,141996.890625,0.0
1713487683.3480034,155434.3125,147359.0625,224151.171875,207957.328125,148633.125,160340.875,131128.21875,141974.171875,0.0
1713487683.351117,155473.640625,147363.1875,224167.53125,207979.765625,148646.078125,160348.734375,131147.4375,141997.6875,0.0
1713487683.3511276,155526.484375,147383.03125,224201.515625,208021.078125,148671.109375,160367.515625,131171.046875,142026.125,0.0
1713487683.3530586,155514.59375,147391.96875,224195.875,208006.328125,148668.515625,160365.375,131163.984375,142006.890625,0.0
1713487683.3617141,155471.328125,147402.515625,224169.953125,207969.3125,148660.296875,160360.09375,131154.5,141975.6875,0.0
1713487683.3692863,155509.9375,147412.09375,224184.515625,207988.71875,148670.3125,160368.40625,131172.921875,141988.21875,0.0
1713487683.3742952,155549.828125,147405.5625,224197.3125,208007.84375,148667.984375,160361.96875,131166.390625,141988.03125,0.0
1713487683.3791833,155532.203125,147398.5,224186.046875,207991.84375,148659.3125,160352.234375,131151.109375,141971.671875,0.0
1713487683.38168,155474.09375,147394.46875,224151.625,207954.03125,148648.046875,160345.703125,131140.28125,141954.234375,0.0
1713487683.3891835,155485.890625,147393.484375,224149.390625,207958.671875,148650.8125,160351.953125,131146.453125,141971.046875,0.0
1713487683.3916676,155528.0,147389.734375,224168.421875,207990.40625,148659.046875,160360.0,131155.03125,142000.734375,0.0
1713487683.394189,155526.484375,147393.578125,224172.453125,207996.765625,148668.703125,160372.703125,131169.15625,142021.65625,0.0
1713487683.3966806,155475.703125,147391.609375,224141.609375,207963.59375,148660.828125,160369.03125,131158.96875,142012.171875,0.0
1713487683.3991783,155474.71875,147388.390625,224130.703125,207960.640625,148657.34375,160365.640625,131151.015625,142014.59375,0.0
1713487683.40164,155527.109375,147385.53125,224152.0625,207995.421875,148662.0,160362.59375,131148.953125,142036.671875,0.0
1713487683.4041634,155525.046875,147383.46875,224151.53125,207990.40625,148662.265625,160360.625,131151.546875,142042.03125,0.0
1713487683.406674,155477.578125,147385.71875,224127.84375,207956.34375,148658.859375,160359.375,131154.953125,142030.765625,0.0
1713487683.4116757,155458.09375,147385.078125,224106.640625,207936.328125,148649.390625,160352.046875,131143.0625,142008.0625,0.0
1713487683.417918,155507.171875,147379.71875,224121.125,207961.984375,148649.84375,160352.140625,131139.390625,142014.140625,0.0
1713487683.4204268,155519.25,147378.109375,224123.453125,207966.8125,148652.25,160356.515625,131145.296875,142017.265625,0.0
1713487683.4229035,155485.359375,147385.53125,224108.078125,207943.75,148653.765625,160362.515625,131147.796875,142003.765625,0.0
1713487683.4254334,155452.71875,147392.15625,224086.265625,207920.140625,148653.765625,160367.421875,131146.359375,141988.21875,0.0
1713487683.4279177,155501.546875,147391.4375,224103.609375,207948.578125,148665.9375,160377.0,131164.328125,142011.8125,0.0
1713487683.4328904,155524.703125,147386.515625,224113.625,207962.78125,148670.671875,160378.421875,131171.9375,142023.171875,0.0
1713487683.4416857,155503.421875,147390.09375,224105.390625,207950.890625,148671.65625,160378.328125,131169.515625,142014.765625,0.0
1713487683.4479203,155461.9375,147388.21875,224074.734375,207918.265625,148660.203125,160369.578125,131153.875,141988.84375,0.0
1713487683.4504008,155499.578125,147383.46875,224082.78125,207935.703125,148662.4375,160370.015625,131159.15625,142002.78125,0.0
1713487683.4529316,155533.453125,147385.265625,224098.515625,207957.0625,148669.859375,160375.390625,131164.0625,142018.703125,0.0
1713487683.4592035,155515.578125,147389.734375,224092.15625,207948.75,148668.515625,160375.03125,131156.828125,142010.65625,0.0
1713487683.4906101,155457.546875,147389.28125,224056.21875,207906.375,148656.1875,160368.234375,131144.21875,141986.515625,0.0
1713487683.490618,155489.828125,147391.171875,224063.640625,207916.734375,148661.8125,160372.96875,131153.25,141997.78125,0.0
1713487683.490622,155524.703125,147385.078125,224074.375,207935.25,148664.234375,160373.59375,131159.0625,142012.53125,0.0
1713487683.4906259,155509.5,147381.59375,224065.609375,207923.265625,148659.765625,160367.15625,131152.984375,142005.734375,0.0
1713487683.49063,155466.765625,147387.328125,224041.109375,207891.625,148649.65625,160359.828125,131141.71875,141981.5,0.0
1713487683.4906335,155489.921875,147392.59375,224045.5,207903.234375,148653.328125,160364.203125,131150.296875,141989.90625,0.0
1713487683.4906378,155531.671875,147384.375,224058.640625,207927.46875,148658.421875,160365.375,131161.296875,142009.84375,0.0
1713487683.4906414,155518.890625,147375.96875,224048.890625,207916.03125,148652.875,160360.625,131158.4375,142002.34375,0.0
1713487683.490645,155470.96875,147378.46875,224023.3125,207879.375,148644.109375,160357.953125,131151.1875,141977.484375,0.0
1713487683.4906487,155475.171875,147386.609375,224022.6875,207879.8125,148648.3125,160360.359375,131150.921875,141979.546875,0.0
1713487683.4906523,155528.0,147387.671875,224047.453125,207916.734375,148661.640625,160365.375,131156.109375,142005.921875,0.0
1713487683.490656,155530.234375,147385.890625,224047.1875,207918.53125,148661.8125,160362.953125,131145.5625,142001.53125,0.0
1713487683.4906597,155491.171875,147393.40625,224030.828125,207899.84375,148658.859375,160360.984375,131130.8125,141980.4375,0.0
1713487683.4906633,155471.234375,147395.359375,224014.375,207878.296875,148653.765625,160359.203125,131128.578125,141970.953125,0.0
1713487683.4906676,155532.75,147401.71875,224041.734375,207912.1875,148669.0625,160373.421875,131149.84375,142003.59375,0.0
1713487683.4906712,155553.125,147409.671875,224055.234375,207929.34375,148683.0,160385.3125,131167.90625,142023.890625,0.0
1713487683.4906747,155509.59375,147402.4375,224028.78125,207899.484375,148672.015625,160374.40625,131159.953125,142006.0,0.0
1713487683.4906783,155478.5625,147401.265625,224002.3125,207871.6875,148658.15625,160363.84375,131146.28125,141982.484375,0.0
1713487683.490682,155534.078125,147399.84375,224021.0,207900.640625,148663.15625,160365.109375,131156.28125,141995.625,0.0
1713487683.490686,155559.296875,147400.90625,224032.796875,207916.390625,148668.515625,160365.640625,131158.609375,142006.359375,0.0
1713487683.496318,155528.265625,147402.078125,224016.34375,207888.75,148661.109375,160360.1875,131146.546875,141990.171875,0.0
1713487683.4963253,155486.515625,147404.671875,223989.171875,207857.375,148648.5,160352.671875,131131.078125,141967.921875,0.0
1713487683.4963288,155527.828125,147406.0,224004.453125,207883.21875,148653.859375,160357.140625,131139.125,141987.140625,0.0
1713487683.4963331,155545.265625,147396.34375,224005.890625,207890.640625,148651.265625,160354.015625,131139.5625,141997.6875,0.0
1713487683.496337,155517.71875,147384.90625,223985.328125,207868.1875,148640.625,160344.0,131127.671875,141983.5625,0.0
1713487683.5009735,155470.0625,147386.15625,223953.765625,207833.5,148634.734375,160342.21875,131126.15625,141967.5625,0.0
1713487683.5009809,155499.21875,147387.328125,223961.09375,207849.859375,148641.078125,160343.640625,131132.421875,141979.546875,0.0
1713487683.502935,155540.96875,147391.171875,223982.1875,207883.125,148649.921875,160349.546875,131136.171875,141992.0625,0.0
1713487683.505391,155532.828125,147396.0,223978.890625,207870.875,148650.734375,160354.46875,131138.046875,141985.265625,0.0
1713487683.5104232,155488.84375,147400.015625,223950.546875,207834.046875,148640.265625,160349.28125,131125.53125,141961.5625,0.0
1713487683.5129173,155505.203125,147398.5,223948.9375,207841.015625,148639.46875,160346.859375,131127.765625,141966.9375,0.0
1713487683.515406,155550.53125,147399.65625,223971.109375,207872.21875,148655.828125,160363.5,131161.46875,142001.625,0.0
1713487683.51848,155545.265625,147402.96875,223973.96875,207874.265625,148665.296875,160371.890625,131171.75,142010.5625,0.0
1713487683.518493,155491.171875,147397.328125,223941.0625,207834.125,148645.28125,160349.359375,131125.625,141972.75,0.0
1713487683.5275738,155489.5625,147397.0625,223931.59375,207826.0,148640.8125,160344.71875,131116.40625,141966.9375,0.0
1713487683.5275812,155546.15625,147400.640625,223958.671875,207862.203125,148654.390625,160355.984375,131135.359375,141992.59375,0.0
1713487683.5275853,155546.609375,147396.890625,223959.21875,207863.984375,148655.734375,160354.90625,131138.9375,141996.171875,0.0
1713487683.5304043,155498.953125,147394.03125,223932.578125,207832.875,148649.65625,160350.34375,131135.359375,141982.046875,0.0
1713487683.535422,155476.59375,147389.734375,223909.0625,207809.453125,148640.71875,160344.265625,131125.984375,141970.0625,0.0
1713487683.5428824,155526.03125,147386.421875,223927.125,207838.0625,148648.9375,160348.828125,131141.71875,141996.4375,0.0
1713487683.5428903,155532.828125,147382.765625,223929.4375,207839.84375,148648.859375,160347.484375,131146.28125,142000.109375,0.0
1713487683.5428944,155492.6875,147381.234375,223907.625,207815.53125,148639.5625,160341.5,131135.359375,141976.953125,0.0
1713487683.5428982,155469.890625,147393.046875,223893.40625,207797.296875,148643.9375,160347.75,131141.0,141974.171875,0.0
1713487683.542902,155527.109375,147397.515625,223920.140625,207836.453125,148659.40625,160356.875,131159.0625,142007.796875,0.0
1713487683.5429056,155546.515625,147394.203125,223929.078125,207848.25,148658.859375,160354.1875,131154.046875,142011.71875,0.0
1713487683.5491388,155515.125,147391.34375,223912.90625,207824.5625,148648.140625,160344.53125,131135.453125,141988.03125,0.0
1713487683.5559506,155473.203125,147392.6875,223883.046875,207791.484375,148637.3125,160338.375,131119.71875,141963.890625,0.0
1713487683.5559576,155513.4375,147398.671875,223899.046875,207816.0625,148652.96875,160354.90625,131146.546875,141993.390625,0.0
1713487683.5579016,155540.609375,147394.828125,223908.875,207831.53125,148657.703125,160362.0625,131156.90625,142006.265625,0.0
1713487683.5604203,155509.9375,147385.625,223887.421875,207806.59375,148642.953125,160350.265625,131136.890625,141982.9375,0.0
1713487683.5672617,155454.515625,147384.109375,223852.375,207770.46875,148632.3125,160343.015625,131127.140625,141966.390625,0.0
1713487683.5672688,155483.921875,147384.8125,223861.5,207790.140625,148641.15625,160346.328125,131136.34375,141985.796875,0.0
1713487683.624333,155528.625,147384.375,223882.859375,207820.8125,148652.421875,160351.6875,131143.6875,142000.453125,0.0
1713487683.6742744,155520.5,147383.65625,223880.71875,207816.609375,148653.234375,160350.890625,131143.234375,141994.296875,0.0
1713487683.6992111,155476.234375,147390.625,223855.859375,207785.3125,148648.140625,160349.015625,131138.859375,141975.96875,0.0
1713487683.7017455,155490.984375,147392.953125,223854.609375,207785.671875,148646.96875,160348.375,131136.625,141975.25,0.0
1713487683.7066455,155535.96875,147389.109375,223870.515625,207804.453125,148652.34375,160353.921875,131147.96875,141996.703125,0.0
1713487683.7142055,155531.84375,147385.078125,223865.96875,207801.140625,148649.65625,160351.953125,131144.484375,141995.8125,0.0
1713487683.7166429,155480.078125,147381.6875,223833.515625,207764.65625,148635.625,160341.9375,131126.609375,141966.75,0.0
1713487683.7217047,155474.1875,147377.578125,223819.921875,207754.921875,148630.609375,160337.46875,131123.828125,141964.609375,0.0
1713487683.7247694,155534.625,147384.8125,223851.296875,207800.6875,148652.15625,160354.46875,131151.109375,142004.03125,0.0
1713487683.7247808,155540.34375,147388.125,223855.40625,207804.0,148657.53125,160360.359375,131156.28125,142006.546875,0.0
1713487683.726718,155495.8125,147387.671875,223827.25,207768.234375,148645.546875,160352.40625,131139.390625,141977.03125,0.0
1713487683.7297635,155484.828125,147394.828125,223815.984375,207757.59375,148647.953125,160356.703125,131145.375,141977.390625,0.0
1713487683.7297752,155532.921875,147391.25,223833.6875,207784.234375,148654.484375,160360.453125,131152.53125,141997.328125,0.0
1713487683.7317295,155534.265625,147383.75,223831.90625,207785.9375,148650.109375,160354.1875,131144.578125,141994.828125,0.0
1713487683.736758,155488.125,147380.703125,223806.78125,207757.78125,148642.140625,160345.703125,131135.09375,141979.8125,0.0
1713487683.7392292,155463.359375,147388.9375,223790.859375,207741.421875,148640.8125,160346.765625,131132.234375,141971.765625,0.0
1713487683.7422948,155515.671875,147387.5,223811.609375,207775.84375,148647.421875,160348.5625,131139.125,141992.0625,0.0
1713487683.7423089,155533.375,147377.84375,223812.765625,207775.484375,148644.65625,160343.28125,131138.046875,141996.609375,0.0
1713487683.7705142,155511.015625,147378.109375,223802.125,207763.140625,148644.296875,160342.75,131136.703125,141990.984375,0.0
1713487683.7767956,155466.671875,147376.234375,223771.28125,207726.390625,148631.0625,160333.453125,131119.359375,141967.46875,0.0
1713487683.7792664,155507.53125,147382.578125,223788.265625,207750.984375,148644.5625,160345.96875,131140.1875,141994.46875,0.0
1713487683.781839,155535.15625,147381.421875,223798.90625,207766.265625,148649.390625,160348.828125,131153.25,142010.296875,0.0
1713487683.7910817,155511.46875,147383.203125,223787.828125,207750.984375,148649.296875,160351.6875,131152.53125,142004.21875,0.0
1713487683.7911232,155456.296875,147382.140625,223754.03125,207712.453125,148635.171875,160344.453125,131131.796875,141970.59375,0.0
1713487683.795946,155489.65625,147386.875,223766.453125,207733.015625,148642.5,160349.015625,131137.59375,141983.734375,0.0
1713487683.7959576,155531.3125,147384.8125,223784.609375,207758.9375,148649.921875,160350.890625,131147.890625,142005.640625,0.0
1713487683.8011296,155520.140625,147382.21875,223777.890625,207748.5625,148645.015625,160344.359375,131140.734375,141995.8125,0.0
1713487683.80115,155472.03125,147387.140625,223751.609375,207716.828125,148637.859375,160340.25,131129.015625,141970.59375,0.0
1713487683.803593,155486.25,147388.578125,223751.703125,207723.359375,148640.984375,160342.21875,131135.640625,141977.484375,0.0
1713487683.8036036,155531.3125,147385.0,223768.234375,207747.671875,148648.046875,160348.109375,131144.75,141997.515625,0.0
1713487683.8061144,155524.15625,147380.53125,223761.890625,207738.28125,148646.171875,160346.859375,131143.0625,141991.78125,0.0
1713487683.8061273,155480.4375,147389.90625,223742.40625,207714.859375,148646.96875,160350.34375,131144.03125,141981.59375,0.0
1713487683.8080666,155476.328125,147393.84375,223735.078125,207707.53125,148649.125,160354.8125,131146.09375,141985.625,0.0
1713487683.8180356,155519.25,147388.296875,223750.1875,207729.796875,148655.109375,160361.609375,131158.796875,142011.546875,0.0
1713487683.8230624,155520.578125,147389.46875,223751.171875,207732.109375,148658.15625,160367.421875,131165.765625,142015.75,0.0
1713487683.8255138,155465.15625,147379.8125,223716.03125,207691.96875,148637.234375,160349.546875,131137.875,141979.09375,0.0
1713487683.8305392,155440.296875,147371.234375,223691.796875,207669.703125,148621.578125,160333.09375,131117.84375,141962.015625,0.0
1713487683.8330376,155497.25,147372.5625,223717.546875,207707.0,148635.359375,160342.84375,131140.28125,141991.609375,0.0
1713487683.8826635,155516.828125,147376.234375,223728.546875,207718.609375,148643.671875,160349.359375,131150.5625,142001.4375,0.0
1713487683.8827069,155475.796875,147369.890625,223703.328125,207686.96875,148631.328125,160338.09375,131130.8125,141973.90625,0.0
1713487683.8827264,155442.984375,147370.6875,223679.8125,207664.25,148623.109375,160329.34375,131119.1875,141956.46875,0.0
1713487683.8827431,155499.484375,147376.328125,223706.640625,207702.703125,148637.40625,160336.3125,131134.296875,141985.34375,0.0
1713487683.882759,155521.5625,147374.0,223714.0625,207713.703125,148639.46875,160335.234375,131137.0625,141996.53125,0.0
1713487683.8827753,155492.515625,147373.1875,223696.984375,207693.140625,148634.375,160334.34375,131132.0625,141983.109375,0.0
1713487683.8827915,155458.984375,147384.8125,223677.3125,207668.09375,148635.171875,160338.90625,131129.90625,141970.421875,0.0
1713487683.882808,155500.734375,147389.5625,223694.296875,207690.28125,148649.921875,160350.53125,131149.140625,141998.671875,0.0
1713487683.8828242,155525.5,147387.671875,223705.203125,207708.515625,148656.453125,160355.71875,131158.703125,142016.015625,0.0
1713487683.8828306,155498.046875,147380.796875,223688.765625,207687.765625,148648.859375,160350.265625,131147.609375,141997.78125,0.0
1713487683.882835,155452.640625,147384.8125,223663.28125,207658.984375,148645.71875,160352.140625,131144.671875,141983.921875,0.0
1713487683.8828385,155486.609375,147389.109375,223674.0,207678.65625,148653.859375,160360.625,131155.75,142000.28125,0.0
1713487683.882842,155525.6875,147390.1875,223690.09375,207701.0,148659.140625,160365.8125,131160.40625,142012.625,0.0
1713487683.8828456,155517.640625,147394.65625,223688.578125,207694.5625,148663.515625,160368.3125,131164.875,142012.265625,0.0
1713487683.8828492,155471.859375,147398.046875,223664.078125,207664.171875,148658.0625,160364.46875,131165.140625,141999.484375,0.0
1713487683.8828528,155485.8125,147393.3125,223659.4375,207666.40625,148649.03125,160353.921875,131149.3125,141992.953125,0.0
1713487683.8828561,155533.1875,147391.25,223675.890625,207693.5,148651.890625,160355.265625,131148.515625,142006.265625,0.0
1713487683.8828597,155530.15625,147391.96875,223671.6875,207681.6875,148654.484375,160358.390625,131155.9375,142010.296875,0.0
1713487683.882864,155481.953125,147393.9375,223644.140625,207652.453125,148651.53125,160358.484375,131154.140625,141998.21875,0.0
1713487683.8828676,155474.984375,147391.515625,223632.609375,207647.453125,148649.65625,160356.875,131152.359375,141996.171875,0.0
1713487683.8874955,155513.25,147376.953125,223640.484375,207660.765625,148642.859375,160349.28125,131148.953125,142000.015625,0.0
1713487683.9387188,155512.625,147372.125,223637.890625,207656.125,148638.125,160347.046875,131150.46875,141997.875,0.0
1713487683.9387364,155466.9375,147370.953125,223611.6875,207625.28125,148627.9375,160340.96875,131139.921875,141977.03125,0.0
1713487684.0199375,155439.671875,147363.8125,223586.5625,207601.765625,148615.140625,160330.234375,131122.671875,141954.953125,0.0
1713487684.059911,155504.140625,147377.03125,223621.25,207646.90625,148639.203125,160350.34375,131147.34375,141993.21875,0.0
1713487684.0725892,155525.046875,147383.203125,223635.828125,207663.0,148651.53125,160359.109375,131160.671875,142009.140625,0.0
1713487684.0726156,155491.796875,147384.546875,223620.71875,207640.390625,148646.96875,160350.625,131148.953125,141994.734375,0.0
1713487684.0825727,155462.734375,147387.5,223601.5,207620.984375,148642.5,160343.015625,131137.328125,141982.125,0.0
1713487684.0825891,155515.40625,147390.359375,223624.296875,207657.8125,148656.546875,160352.578125,131150.921875,142009.484375,0.0
1713487684.0938008,155536.765625,147387.671875,223632.25,207673.734375,148663.96875,160358.671875,131163.625,142028.625,0.0
1713487684.0938432,155498.671875,147378.828125,223607.21875,207643.15625,148653.765625,160352.578125,131156.5625,142016.28125,0.0
1713487684.1049314,155446.203125,147375.875,223571.375,207603.546875,148635.4375,160341.140625,131132.234375,141982.578125,0.0
1713487684.1049423,155490.546875,147385.625,223589.0625,207626.265625,148645.90625,160350.34375,131146.0,142002.96875,0.0
1713487684.109888,155528.71875,147392.15625,223606.0625,207647.625,148655.921875,160360.90625,131160.765625,142017.71875,0.0
1713487684.1149528,155508.96875,147390.890625,223595.0625,207628.9375,148653.859375,160359.109375,131159.234375,142005.46875,0.0
1713487684.122502,155459.703125,147392.234375,223567.609375,207595.6875,148647.0625,160354.1875,131146.546875,141984.90625,0.0
1713487684.1312275,155490.1875,147394.828125,223579.5,207622.0625,148660.65625,160367.875,131167.28125,142009.21875,0.0
1713487684.136211,155528.625,147389.734375,223592.734375,207642.796875,148666.015625,160373.859375,131178.1875,142025.046875,0.0
1713487684.1412225,155501.359375,147372.03125,223568.0625,207608.28125,148642.59375,160352.859375,131144.75,141990.171875,0.0
1713487684.1500478,155455.046875,147379.28125,223543.296875,207576.453125,148634.015625,160348.203125,131130.0,141962.46875,0.0
1713487684.1500585,155475.25,147389.109375,223552.140625,207591.296875,148642.328125,160355.359375,131141.09375,141975.875,0.0
1713487684.1624255,155530.515625,147392.234375,223578.15625,207626.078125,148653.234375,160363.40625,131150.65625,141998.578125,0.0
1713487684.1674037,155535.25,147393.484375,223579.5,207625.90625,148655.015625,160366.359375,131153.15625,142000.90625,0.0
1713487684.172378,155484.46875,147392.59375,223549.28125,207592.734375,148643.84375,160359.921875,131135.8125,141980.875,0.0
1713487684.1926477,155477.125,147389.28125,223538.375,207587.1875,148639.46875,160349.984375,131128.84375,141983.921875,0.0
1713487684.1926591,155522.8125,147385.265625,223559.296875,207616.78125,148649.65625,160354.375,131146.984375,142015.65625,0.0
1713487684.192664,155522.8125,147382.578125,223559.03125,207615.796875,148649.84375,160355.09375,131149.140625,142017.453125,0.0
1713487684.1926675,155476.859375,147385.71875,223533.8125,207578.6875,148643.40625,160352.671875,131140.90625,141994.46875,0.0
1713487684.197326,155460.953125,147394.734375,223522.90625,207567.875,148646.625,160357.140625,131145.203125,141987.046875,0.0
1713487684.2023568,155516.375,147398.9375,223547.671875,207602.75,148662.265625,160370.109375,131169.34375,142014.5,0.0
1713487684.2086735,155533.453125,147398.5,223554.203125,207611.59375,148667.1875,160373.328125,131178.546875,142024.0625,0.0
1713487684.2136178,155498.140625,147391.875,223530.953125,207582.890625,148650.375,160355.171875,131147.796875,141996.609375,0.0
1713487684.2263007,155469.53125,147392.953125,223510.484375,207562.25,148643.046875,160348.203125,131135.359375,141983.203125,0.0
1713487684.2263184,155523.796875,147395.28125,223532.46875,207593.53125,148657.53125,160360.453125,131160.578125,142017.359375,0.0
1713487684.234958,155538.90625,147385.890625,223533.09375,207598.1875,148650.375,160353.03125,131154.046875,142015.5625,0.0
1713487684.2399435,155498.5,147377.484375,223508.78125,207565.640625,148634.015625,160339.265625,131131.96875,141987.046875,0.0
1713487684.2474465,155453.53125,147379.984375,223479.546875,207531.671875,148623.8125,160334.25,131119.625,141964.515625,0.0
1713487684.2537496,155504.484375,147385.984375,223499.484375,207564.5625,148636.25,160345.703125,131136.34375,141990.625,0.0
1713487684.262485,155539.1875,147385.4375,223512.453125,207586.375,148644.203125,160352.234375,131149.21875,142009.3125,0.0
1713487684.2673836,155523.890625,147391.796875,223505.921875,207574.3125,148650.1875,160360.90625,131160.3125,142010.75,0.0
1713487684.5400188,155472.296875,147396.796875,223476.328125,207538.734375,148644.375,160357.765625,131154.328125,141991.96875,0.0
1713487684.5400636,155500.921875,147403.140625,223488.046875,207561.703125,148653.59375,160362.15625,131160.125,142007.96875,0.0
1713487684.5400827,155536.3125,147397.0625,223498.5,207575.65625,148654.21875,160362.953125,131157.71875,142015.75,0.0
1713487684.540104,155527.296875,147395.359375,223492.421875,207567.15625,148653.234375,160365.1875,131157.265625,142011.1875,0.0
1713487684.5401075,155474.8125,147394.109375,223460.953125,207530.59375,148641.25,160356.25,131140.28125,141985.078125,0.0
1713487684.5401113,155487.59375,147395.71875,223463.71875,207538.734375,148643.21875,160355.53125,131139.84375,141990.890625,0.0
1713487684.540115,155528.453125,147389.109375,223481.15625,207565.640625,148648.140625,160354.90625,131145.5625,142008.859375,0.0
1713487684.5401192,155530.859375,147392.421875,223485.8125,207568.6875,148652.15625,160357.59375,131148.0625,142010.296875,0.0
1713487684.5401227,155482.9375,147391.703125,223456.21875,207529.34375,148639.640625,160349.71875,131133.484375,141984.71875,0.0
1713487684.5401268,155468.8125,147383.921875,223437.96875,207517.453125,148632.671875,160344.1875,131132.0625,141981.78125,0.0
1713487684.540131,155525.234375,147381.234375,223460.859375,207553.75,148644.109375,160352.234375,131153.875,142012.890625,0.0
1713487684.540135,155539.265625,147385.984375,223470.515625,207560.453125,148654.125,160361.078125,131168.796875,142024.78125,0.0
1713487684.5401385,155490.8125,147380.703125,223441.28125,207527.109375,148640.359375,160348.375,131148.234375,141996.890625,0.0
1713487684.5401423,155472.390625,147384.453125,223426.53125,207517.890625,148635.171875,160342.296875,131135.359375,141982.125,0.0
1713487684.540146,155529.703125,147392.59375,223452.90625,207549.28125,148648.9375,160353.125,131153.34375,142006.625,0.0
1713487684.54015,155550.796875,147399.125,223464.890625,207560.1875,148655.734375,160359.921875,131164.15625,142017.09375,0.0
1713487684.540154,155512.09375,147396.078125,223442.171875,207532.296875,148646.96875,160351.25,131152.890625,141999.828125,0.0
1713487684.5401578,155480.796875,147398.5,223418.296875,207506.546875,148641.96875,160347.75,131141.53125,141986.875,0.0
1713487684.5401623,155529.96875,147396.4375,223433.765625,207528.71875,148648.578125,160354.375,131152.984375,142006.359375,0.0
1713487684.5401661,155545.078125,147390.359375,223436.28125,207534.53125,148648.578125,160357.5,131158.875,142012.359375,0.0
1713487684.553832,155519.0625,147395.71875,223426.171875,207518.96875,148650.015625,160362.421875,131159.859375,142004.03125,0.0
1713487684.553866,155483.125,147405.65625,223407.484375,207498.671875,148650.375,160367.34375,131157.265625,141991.78125,0.0
1713487684.5637808,155517.90625,147397.328125,223414.375,207516.375,148647.515625,160361.078125,131144.21875,141992.5,0.0
1713487684.572522,155544.28125,147387.953125,223421.796875,207531.125,148650.46875,160360.09375,131150.5625,142009.046875,0.0
1713487684.5725396,155525.046875,147388.390625,223414.09375,207522.375,148654.125,160364.65625,131160.765625,142012.078125,0.0
1713487684.5800219,155475.34375,147391.703125,223387.28125,207489.28125,148649.65625,160364.921875,131161.65625,141995.546875,0.0
1713487684.5800283,155508.96875,147397.515625,223403.109375,207514.59375,148660.03125,160369.390625,131170.40625,142012.796875,0.0
1713487684.5911915,155544.640625,147392.6875,223417.140625,207531.578125,148661.453125,160360.71875,131167.375,142023.171875,0.0
1713487684.6056163,155529.171875,147391.609375,223410.078125,207518.703125,148657.53125,160355.453125,131160.765625,142015.21875,0.0
1713487684.6056273,155478.109375,147394.734375,223380.9375,207483.46875,148647.328125,160350.34375,131146.90625,141991.34375,0.0
1713487684.605632,155483.921875,147389.734375,223373.421875,207481.859375,148640.71875,160344.453125,131140.46875,141987.234375,0.0
1713487684.605636,155521.484375,147383.75,223385.765625,207503.234375,148643.578125,160345.34375,131142.78125,142001.984375,0.0
1713487684.612869,155526.9375,147392.78125,223393.71875,207510.03125,148655.5625,160358.390625,131157.0,142012.265625,0.0
1713487684.6128817,155526.9375,147392.78125,223393.71875,207510.03125,148655.5625,160358.390625,131157.0,142012.265625,0.0
1713487684.6128848,155526.9375,147392.78125,223393.71875,207510.03125,148655.5625,160358.390625,131157.0,142012.265625,0.0
1713487684.6128883,155526.9375,147392.78125,223393.71875,207510.03125,148655.5625,160358.390625,131157.0,142012.265625,0.0
1713487684.6128905,155526.9375,147392.78125,223393.71875,207510.03125,148655.5625,160358.390625,131157.0,142012.265625,0.0
1713487684.6128929,155526.9375,147392.78125,223393.71875,207510.03125,148655.5625,160358.390625,131157.0,142012.265625,0.0
1713487684.6128953,155526.9375,147392.78125,223393.71875,207510.03125,148655.5625,160358.390625,131157.0,142012.265625,0.0
1713487684.6128974,155526.9375,147392.78125,223393.71875,207510.03125,148655.5625,160358.390625,131157.0,142012.265625,0.0
1713487684.6128998,155526.9375,147392.78125,223393.71875,207510.03125,148655.5625,160358.390625,131157.0,142012.265625,0.0
1713487684.612902,155526.9375,147392.78125,223393.71875,207510.03125,148655.5625,160358.390625,131157.0,142012.265625,0.0
1713487684.6129043,155526.9375,147392.78125,223393.71875,207510.03125,148655.5625,160358.390625,131157.0,142012.265625,0.0
1713487684.612913,155526.9375,147392.78125,223393.71875,207510.03125,148655.5625,160358.390625,131157.0,142012.265625,0.0
1713487684.612916,155526.9375,147392.78125,223393.71875,207510.03125,148655.5625,160358.390625,131157.0,142012.265625,0.0
1713487684.6129184,155526.9375,147392.78125,223393.71875,207510.03125,148655.5625,160358.390625,131157.0,142012.265625,0.0
1713487684.6129205,155526.9375,147392.78125,223393.71875,207510.03125,148655.5625,160358.390625,131157.0,142012.265625,0.0
1713487684.612923,155526.9375,147392.78125,223393.71875,207510.03125,148655.5625,160358.390625,131157.0,142012.265625,0.0
1713487684.6129253,155526.9375,147392.78125,223393.71875,207510.03125,148655.5625,160358.390625,131157.0,142012.265625,0.0
1713487684.6129274,155526.9375,147392.78125,223393.71875,207510.03125,148655.5625,160358.390625,131157.0,142012.265625,0.0
1713487684.6129296,155526.9375,147392.78125,223393.71875,207510.03125,148655.5625,160358.390625,131157.0,142012.265625,0.0
1713487684.612932,155526.9375,147392.78125,223393.71875,207510.03125,148655.5625,160358.390625,131157.0,142012.265625,0.0
1713487684.6129348,155526.9375,147392.78125,223393.71875,207510.03125,148655.5625,160358.390625,131157.0,142012.265625,0.0
1713487684.6129372,155526.9375,147392.78125,223393.71875,207510.03125,148655.5625,160358.390625,131157.0,142012.265625,0.0
1713487684.6129391,155526.9375,147392.78125,223393.71875,207510.03125,148655.5625,160358.390625,131157.0,142012.265625,0.0
1713487684.6129415,155526.9375,147392.78125,223393.71875,207510.03125,148655.5625,160358.390625,131157.0,142012.265625,0.0
1713487684.6129515,155526.9375,147392.78125,223393.71875,207510.03125,148655.5625,160358.390625,131157.0,142012.265625,0.0
1713487684.612954,155526.9375,147392.78125,223393.71875,207510.03125,148655.5625,160358.390625,131157.0,142012.265625,0.0
1713487684.6129563,155526.9375,147392.78125,223393.71875,207510.03125,148655.5625,160358.390625,131157.0,142012.265625,0.0
1713487684.6129584,155526.9375,147392.78125,223393.71875,207510.03125,148655.5625,160358.390625,131157.0,142012.265625,0.0
1713487684.6129608,155526.9375,147392.78125,223393.71875,207510.03125,148655.5625,160358.390625,131157.0,142012.265625,0.0
1713487684.6129637,155526.9375,147392.78125,223393.71875,207510.03125,148655.5625,160358.390625,131157.0,142012.265625,0.0
1713487684.6129663,155526.9375,147392.78125,223393.71875,207510.03125,148655.5625,160358.390625,131157.0,142012.265625,0.0
1713487684.6129687,155526.9375,147392.78125,223393.71875,207510.03125,148655.5625,160358.390625,131157.0,142012.265625,0.0
1713487684.612971,155526.9375,147392.78125,223393.71875,207510.03125,148655.5625,160358.390625,131157.0,142012.265625,0.0
1713487684.6129732,155526.9375,147392.78125,223393.71875,207510.03125,148655.5625,160358.390625,131157.0,142012.265625,0.0
1713487684.6129756,155509.234375,147387.953125,223253.34375,207409.09375,148638.921875,160341.859375,131142.96875,141992.953125,0.0
1713487684.6129794,155476.234375,147390.8125,223228.140625,207377.96875,148628.203125,160336.046875,131132.5,141974.359375,0.0
1713487684.6154752,155523.359375,147388.578125,223243.0625,207403.015625,148632.21875,160341.5,131140.375,141989.375,0.0
1713487684.6185293,155542.578125,147385.890625,223249.328125,207415.796875,148632.671875,160343.640625,131141.265625,141991.96875,0.0
1713487684.618546,155517.28125,147390.546875,223237.703125,207400.140625,148632.9375,160348.109375,131139.84375,141980.796875,0.0
1713487684.646076,155474.984375,147395.09375,223213.5625,207374.21875,148629.359375,160349.984375,131134.5625,141964.34375,0.0
1713487684.6460867,155520.9375,147398.40625,223232.609375,207403.1875,148639.203125,160352.40625,131138.671875,141987.765625,0.0
1713487684.6460912,155560.375,147399.84375,223250.03125,207433.859375,148647.78125,160356.34375,131145.375,142004.578125,0.0
1713487684.6460953,155547.140625,147401.53125,223245.296875,207424.015625,148651.453125,160360.71875,131150.5625,142003.140625,0.0
1713487684.6535733,155482.40625,147392.59375,223204.4375,207366.890625,148634.90625,160345.875,131132.234375,141976.671875,0.0
1713487684.653584,155511.28125,147396.796875,223216.25,207384.953125,148647.25,160353.75,131150.296875,142000.015625,0.0
1713487684.673437,155551.34375,147395.546875,223232.609375,207409.71875,148655.5625,160358.390625,131161.390625,142019.328125,0.0
1713487684.6734512,155542.484375,147397.953125,223229.828125,207406.40625,148659.9375,160364.296875,131171.125,142019.6875,0.0
1713487684.6734567,155491.171875,147398.671875,223200.5,207373.140625,148648.3125,160356.515625,131154.765625,141994.734375,0.0
1713487684.6734605,155499.65625,147391.171875,223192.28125,207372.703125,148635.984375,160343.375,131133.9375,141979.546875,0.0
1713487684.673464,155544.640625,147387.671875,223209.71875,207395.671875,148636.34375,160343.46875,131131.875,141984.546875,0.0
1713487684.6734674,155540.96875,147387.5,223206.9375,207389.421875,148632.3125,160343.46875,131130.453125,141974.625,0.0
1713487684.673471,155487.59375,147387.140625,223174.484375,207351.6875,148619.703125,160338.28125,131122.484375,141949.765625,0.0
1713487684.6734743,155479.1875,147385.4375,223159.203125,207336.125,148614.78125,160337.203125,131121.328125,141945.203125,0.0
1713487684.673478,155530.234375,147383.65625,223180.921875,207371.359375,148625.078125,160342.296875,131131.25,141972.125,0.0
1713487684.6734824,155527.46875,147370.328125,223172.96875,207359.734375,148618.640625,160332.203125,131123.203125,141967.015625,0.0
1713487684.673486,155498.859375,147381.421875,223163.9375,207339.984375,148626.234375,160338.71875,131129.109375,141967.375,0.0
1713487684.6756468,155476.328125,147378.734375,223144.8125,207321.65625,148617.734375,160330.046875,131117.03125,141955.578125,0.0
1713487684.675655,155476.328125,147378.734375,223144.8125,207321.65625,148617.734375,160330.046875,131117.03125,141955.578125,0.0
1713487684.6756592,155544.015625,147383.203125,223180.484375,207372.078125,148633.203125,160337.828125,131133.578125,141990.171875,0.0
1713487684.701002,155505.75,147390.0,223166.171875,207352.578125,148633.296875,160340.25,131131.609375,141983.296875,0.0
1713487684.7010152,155467.46875,147393.3125,223142.484375,207327.640625,148629.90625,160339.984375,131127.40625,141973.90625,0.0
1713487684.7266984,155521.5625,147395.71875,223164.390625,207364.65625,148645.90625,160350.53125,131147.796875,142005.46875,0.0
1713487684.7267275,155549.640625,147394.734375,223172.609375,207380.65625,148651.890625,160356.609375,131153.421875,142016.375,0.0
1713487684.7267416,155523.796875,147393.21875,223156.15625,207357.234375,148646.625,160356.421875,131148.78125,141995.546875,0.0
1713487684.7517087,155480.625,147398.234375,223131.03125,207324.59375,148641.25,160358.9375,131147.609375,141974.4375,0.0
1713487684.75172,155522.1875,147401.359375,223150.265625,207353.125,148652.421875,160368.046875,131159.421875,141995.1875,0.0
1713487684.7517245,155548.296875,147394.296875,223159.921875,207367.96875,148651.265625,160364.203125,131156.734375,142003.40625,0.0
1713487684.805137,155525.953125,147395.546875,223149.546875,207346.234375,148646.703125,160360.71875,131152.0,141994.46875,0.0
1713487684.8051713,155468.1875,147390.359375,223109.578125,207297.953125,148624.4375,160343.109375,131125.265625,141959.15625,0.0
1713487684.8051877,155499.65625,147389.46875,223116.375,207318.4375,148626.59375,160341.765625,131126.875,141969.34375,0.0
1713487684.8052027,155539.8125,147383.46875,223128.890625,207340.25,148630.53125,160339.890625,131134.921875,141987.046875,0.0
1713487684.8052197,155532.125,147384.109375,223124.421875,207332.90625,148629.8125,160337.203125,131133.125,141979.71875,0.0
1713487684.8172853,155483.03125,147386.421875,223096.703125,207303.765625,148622.03125,160331.390625,131117.9375,141955.578125,0.0
1713487684.8173068,155488.671875,147378.734375,223091.15625,207305.5625,148617.734375,160326.125,131113.109375,141957.546875,0.0
1713487684.8191912,155532.75,147372.84375,223110.109375,207330.5,148623.734375,160332.203125,131127.765625,141981.328125,0.0
1713487684.8222451,155528.984375,147372.125,223110.296875,207328.984375,148628.015625,160338.71875,131140.734375,141989.375,0.0
1713487684.8222516,155475.703125,147370.6875,223078.828125,207289.109375,148618.90625,160335.421875,131132.421875,141968.984375,0.0
1713487684.8241477,155481.421875,147381.515625,223077.484375,207286.515625,148626.40625,160342.296875,131135.015625,141974.796875,0.0
1713487684.831004,155529.171875,147378.828125,223094.109375,207311.453125,148634.8125,160345.875,131140.28125,141993.125,0.0
1713487684.831014,155525.328125,147372.921875,223090.171875,207306.8125,148634.015625,160345.4375,131137.59375,141991.96875,0.0
1713487684.8329182,155479.8125,147375.34375,223068.90625,207280.078125,148628.109375,160342.65625,131128.390625,141974.71875,0.0
1713487684.835432,155468.453125,147387.59375,223061.84375,207274.53125,148632.765625,160346.765625,131134.828125,141976.234375,0.0
1713487684.8409967,155526.75,147389.828125,223083.921875,207308.234375,148640.453125,160350.171875,131143.5,141997.875,0.0
1713487684.8410058,155542.75,147385.71875,223086.953125,207314.3125,148638.21875,160346.328125,131140.546875,141999.03125,0.0
1713487684.8446429,155509.671875,147386.515625,223071.140625,207297.234375,148634.09375,160343.90625,131136.34375,141986.6875,0.0
1713487684.8446496,155474.625,147385.71875,223047.359375,207268.453125,148627.21875,160340.96875,131130.1875,141970.0625,0.0
1713487684.8446538,155515.21875,147378.734375,223062.1875,207294.015625,148634.28125,160348.109375,131143.59375,141988.84375,0.0
1713487684.844658,155526.484375,147375.15625,223068.09375,207304.03125,148639.109375,160352.234375,131152.359375,141998.671875,0.0
1713487684.8547416,155496.359375,147379.984375,223056.46875,207288.65625,148642.0625,160356.078125,131154.765625,141991.515625,0.0
1713487684.8547578,155443.0625,147371.859375,223016.859375,207248.515625,148622.65625,160339.890625,131130.453125,141956.734375,0.0
1713487684.8658803,155493.140625,147375.078125,223036.53125,207279.890625,148633.65625,160347.3125,131142.703125,141980.515625,0.0
1713487684.8658948,155541.859375,147387.59375,223064.515625,207315.21875,148653.953125,160364.75,131162.8125,142010.75,0.0
1713487684.8658993,155513.25,147382.9375,223045.921875,207289.1875,148644.296875,160355.890625,131148.953125,141993.9375,0.0
1713487684.8659036,155458.984375,147383.203125,223013.015625,207248.6875,148631.421875,160345.25,131136.265625,141971.9375,0.0
1713487684.8863292,155493.40625,147387.234375,223023.84375,207264.421875,148635.4375,160346.59375,131140.546875,141985.0,0.0
1713487684.8863816,155493.40625,147387.234375,223023.84375,207264.421875,148635.4375,160346.59375,131140.546875,141985.0,0.0
1713487684.886388,155493.40625,147387.234375,223023.84375,207264.421875,148635.4375,160346.59375,131140.546875,141985.0,0.0
1713487684.886394,155493.40625,147387.234375,223023.84375,207264.421875,148635.4375,160346.59375,131140.546875,141985.0,0.0
1713487684.8863993,155493.40625,147387.234375,223023.84375,207264.421875,148635.4375,160346.59375,131140.546875,141985.0,0.0
1713487684.8864043,155493.40625,147387.234375,223023.84375,207264.421875,148635.4375,160346.59375,131140.546875,141985.0,0.0
1713487684.8864093,155493.40625,147387.234375,223023.84375,207264.421875,148635.4375,160346.59375,131140.546875,141985.0,0.0
1713487684.886414,155493.40625,147387.234375,223023.84375,207264.421875,148635.4375,160346.59375,131140.546875,141985.0,0.0
1713487684.8864188,155493.40625,147387.234375,223023.84375,207264.421875,148635.4375,160346.59375,131140.546875,141985.0,0.0
1713487684.8864243,155493.40625,147387.234375,223023.84375,207264.421875,148635.4375,160346.59375,131140.546875,141985.0,0.0
1713487684.8864267,155493.40625,147387.234375,223023.84375,207264.421875,148635.4375,160346.59375,131140.546875,141985.0,0.0
1713487684.8864293,155493.40625,147387.234375,223023.84375,207264.421875,148635.4375,160346.59375,131140.546875,141985.0,0.0
1713487684.8864324,155493.40625,147387.234375,223023.84375,207264.421875,148635.4375,160346.59375,131140.546875,141985.0,0.0
1713487684.8864348,155493.40625,147387.234375,223023.84375,207264.421875,148635.4375,160346.59375,131140.546875,141985.0,0.0
1713487684.886437,155493.40625,147387.234375,223023.84375,207264.421875,148635.4375,160346.59375,131140.546875,141985.0,0.0
1713487684.8864396,155493.40625,147387.234375,223023.84375,207264.421875,148635.4375,160346.59375,131140.546875,141985.0,0.0
1713487684.886442,155493.40625,147387.234375,223023.84375,207264.421875,148635.4375,160346.59375,131140.546875,141985.0,0.0
1713487684.8864443,155493.40625,147387.234375,223023.84375,207264.421875,148635.4375,160346.59375,131140.546875,141985.0,0.0
1713487684.8864467,155493.40625,147387.234375,223023.84375,207264.421875,148635.4375,160346.59375,131140.546875,141985.0,0.0
1713487684.886449,155493.40625,147387.234375,223023.84375,207264.421875,148635.4375,160346.59375,131140.546875,141985.0,0.0
1713487684.886452,155493.40625,147387.234375,223023.84375,207264.421875,148635.4375,160346.59375,131140.546875,141985.0,0.0
1713487684.8864543,155493.40625,147387.234375,223023.84375,207264.421875,148635.4375,160346.59375,131140.546875,141985.0,0.0
1713487684.8864567,155493.40625,147387.234375,223023.84375,207264.421875,148635.4375,160346.59375,131140.546875,141985.0,0.0
1713487684.886459,155493.40625,147387.234375,223023.84375,207264.421875,148635.4375,160346.59375,131140.546875,141985.0,0.0
1713487684.8864615,155493.40625,147387.234375,223023.84375,207264.421875,148635.4375,160346.59375,131140.546875,141985.0,0.0
1713487684.8864644,155493.40625,147387.234375,223023.84375,207264.421875,148635.4375,160346.59375,131140.546875,141985.0,0.0
1713487684.8864667,155493.40625,147387.234375,223023.84375,207264.421875,148635.4375,160346.59375,131140.546875,141985.0,0.0
1713487684.886469,155493.40625,147387.234375,223023.84375,207264.421875,148635.4375,160346.59375,131140.546875,141985.0,0.0
1713487684.8864715,155493.40625,147387.234375,223023.84375,207264.421875,148635.4375,160346.59375,131140.546875,141985.0,0.0
1713487684.8864744,155493.40625,147387.234375,223023.84375,207264.421875,148635.4375,160346.59375,131140.546875,141985.0,0.0
1713487684.886477,155493.40625,147387.234375,223023.84375,207264.421875,148635.4375,160346.59375,131140.546875,141985.0,0.0
1713487684.8864794,155493.40625,147387.234375,223023.84375,207264.421875,148635.4375,160346.59375,131140.546875,141985.0,0.0
1713487684.886482,155493.40625,147387.234375,223023.84375,207264.421875,148635.4375,160346.59375,131140.546875,141985.0,0.0
1713487684.8864841,155493.40625,147387.234375,223023.84375,207264.421875,148635.4375,160346.59375,131140.546875,141985.0,0.0
1713487684.8864863,155493.40625,147387.234375,223023.84375,207264.421875,148635.4375,160346.59375,131140.546875,141985.0,0.0
1713487684.886489,155493.40625,147387.234375,223023.84375,207264.421875,148635.4375,160346.59375,131140.546875,141985.0,0.0
1713487684.8864913,155493.40625,147387.234375,223023.84375,207264.421875,148635.4375,160346.59375,131140.546875,141985.0,0.0
1713487684.8865013,155493.40625,147387.234375,223023.84375,207264.421875,148635.4375,160346.59375,131140.546875,141985.0,0.0
1713487684.8865042,155493.40625,147387.234375,223023.84375,207264.421875,148635.4375,160346.59375,131140.546875,141985.0,0.0
1713487684.8865075,155493.40625,147387.234375,223023.84375,207264.421875,148635.4375,160346.59375,131140.546875,141985.0,0.0
1713487684.88651,155493.40625,147387.234375,223023.84375,207264.421875,148635.4375,160346.59375,131140.546875,141985.0,0.0
1713487684.8865125,155493.40625,147387.234375,223023.84375,207264.421875,148635.4375,160346.59375,131140.546875,141985.0,0.0
1713487684.886515,155493.40625,147387.234375,223023.84375,207264.421875,148635.4375,160346.59375,131140.546875,141985.0,0.0
1713487684.8865173,155493.40625,147387.234375,223023.84375,207264.421875,148635.4375,160346.59375,131140.546875,141985.0,0.0
1713487684.8865197,155493.40625,147387.234375,223023.84375,207264.421875,148635.4375,160346.59375,131140.546875,141985.0,0.0
1713487684.8865223,155493.40625,147387.234375,223023.84375,207264.421875,148635.4375,160346.59375,131140.546875,141985.0,0.0
1713487684.886528,155493.40625,147387.234375,223023.84375,207264.421875,148635.4375,160346.59375,131140.546875,141985.0,0.0
1713487684.8865306,155493.40625,147387.234375,223023.84375,207264.421875,148635.4375,160346.59375,131140.546875,141985.0,0.0
1713487684.886533,155493.40625,147387.234375,223023.84375,207264.421875,148635.4375,160346.59375,131140.546875,141985.0,0.0
1713487684.8865356,155493.40625,147387.234375,223023.84375,207264.421875,148635.4375,160346.59375,131140.546875,141985.0,0.0
1713487684.886538,155493.40625,147387.234375,223023.84375,207264.421875,148635.4375,160346.59375,131140.546875,141985.0,0.0
1713487684.8865404,155493.40625,147387.234375,223023.84375,207264.421875,148635.4375,160346.59375,131140.546875,141985.0,0.0
1713487684.8865433,155493.40625,147387.234375,223023.84375,207264.421875,148635.4375,160346.59375,131140.546875,141985.0,0.0
1713487684.8865457,155493.40625,147387.234375,223023.84375,207264.421875,148635.4375,160346.59375,131140.546875,141985.0,0.0
1713487684.8865485,155483.390625,147385.53125,222826.96875,207142.390625,148629.359375,160344.53125,131133.75,141977.03125,0.0
1713487684.8865523,155539.453125,147390.453125,222854.328125,207177.609375,148644.296875,160357.0625,131151.015625,142003.328125,0.0
1713487684.8865569,155530.421875,147388.65625,222849.234375,207166.34375,148641.703125,160356.15625,131150.921875,141997.59375,0.0
1713487684.9513297,155480.265625,147392.6875,222822.578125,207137.296875,148634.640625,160352.859375,131147.34375,141980.796875,0.0
1713487684.9513469,155471.671875,147390.0,222808.015625,207127.90625,148629.359375,160349.359375,131141.984375,141972.828125,0.0
1713487684.9513516,155517.015625,147382.671875,222824.640625,207152.84375,148633.390625,160349.8125,131141.171875,141989.109375,0.0
1713487684.958764,155519.78125,147378.828125,222825.53125,207150.796875,148631.234375,160344.09375,131133.21875,141985.078125,0.0
1713487684.9687085,155477.9375,147383.46875,222804.96875,207121.375,148626.40625,160339.890625,131130.0,141969.890625,0.0
1713487684.9761894,155466.5,147394.296875,222797.453125,207117.625,148629.0,160339.796875,131129.90625,141970.0625,0.0
1713487684.9812555,155517.71875,147395.1875,222819.015625,207146.328125,148641.4375,160346.859375,131148.328125,141999.65625,0.0
1713487684.99247,155528.625,147395.640625,222825.984375,207149.453125,148651.09375,160358.671875,131170.6875,142017.09375,0.0
1713487685.0062523,155488.75,147390.453125,222802.828125,207121.90625,148638.65625,160348.65625,131147.53125,141990.171875,0.0
1713487685.0112832,155456.21875,147386.15625,222775.5625,207093.921875,148620.953125,160332.296875,131119.265625,141962.640625,0.0
1713487685.0175216,155515.75,147389.109375,222801.21875,207130.140625,148632.9375,160342.296875,131135.453125,141988.21875,0.0
1713487685.1663444,155540.25,147388.484375,222812.65625,207145.78125,148639.640625,160348.828125,131145.375,142000.28125,0.0
1713487685.166365,155501.359375,147381.859375,222789.859375,207117.265625,148628.828125,160341.671875,131134.109375,141982.671875,0.0
1713487685.16637,155462.109375,147387.046875,222766.890625,207093.75,148625.15625,160341.140625,131128.484375,141967.015625,0.0
1713487685.1663747,155507.0,147391.25,222787.625,207125.9375,148639.828125,160352.234375,131148.15625,141992.234375,0.0
1713487685.1663792,155537.125,147387.40625,222800.5,207145.609375,148645.90625,160355.0,131155.578125,142005.375,0.0
1713487685.1713064,155518.171875,147389.28125,222792.90625,207134.515625,148647.875,160356.15625,131155.9375,142001.796875,0.0
1713487685.1800196,155467.203125,147390.453125,222763.578125,207102.15625,148638.84375,160349.640625,131146.0,141982.21875,0.0
1713487685.1899483,155501.359375,147393.3125,222773.234375,207114.046875,148642.0625,160349.28125,131147.609375,141991.96875,0.0
1713487685.2450247,155543.5625,147392.421875,222789.140625,207137.5625,148646.96875,160351.421875,131152.796875,142005.640625,0.0
1713487685.245036,155538.28125,147397.78125,222787.984375,207135.0625,148651.984375,160358.390625,131157.0,142004.75,0.0
1713487685.24504,155489.734375,147400.28125,222757.140625,207098.671875,148641.609375,160353.75,131142.96875,141980.25,0.0
1713487685.2450445,155509.5,147403.40625,222759.90625,207107.15625,148642.59375,160353.921875,131143.0625,141984.546875,0.0
1713487685.2450492,155560.015625,147402.25,222782.703125,207141.140625,148652.15625,160360.0,131154.5,142007.703125,0.0
1713487685.2450528,155554.5625,147402.078125,222780.65625,207137.5625,148654.671875,160363.578125,131157.09375,142009.9375,0.0
1713487685.2450564,155490.8125,147394.65625,222738.625,207079.890625,148635.359375,160351.25,131137.515625,141977.03125,0.0
1713487685.24506,155487.6875,147397.6875,222730.578125,207075.421875,148635.703125,160354.015625,131139.84375,141975.515625,0.0
1713487685.2450635,155539.09375,147398.046875,222752.21875,207106.890625,148646.703125,160361.078125,131155.125,142001.4375,0.0
1713487685.2637835,155547.234375,147398.859375,222756.25,207109.3125,148649.484375,160362.0625,131158.515625,142006.09375,0.0
1713487685.263794,155505.03125,147397.515625,222731.484375,207078.46875,148639.640625,160353.75,131145.203125,141983.296875,0.0
1713487685.2863717,155492.15625,147400.640625,222718.421875,207072.828125,148638.125,160352.671875,131145.46875,141980.25,0.0
1713487685.2863882,155548.296875,147397.875,222740.421875,207103.765625,148649.921875,160361.078125,131169.78125,142013.78125,0.0
1713487685.2863934,155554.828125,147387.765625,222737.921875,207103.671875,148643.671875,160354.546875,131163.4375,142011.1875,0.0
1713487685.2863977,155511.28125,147381.0625,222711.8125,207071.578125,148630.25,160346.859375,131146.0,141982.84375,0.0
1713487685.2975016,155485.359375,147390.265625,222698.125,207056.5625,148634.90625,160355.625,131155.75,141980.25,0.0
1713487685.297513,155539.0,147395.71875,222725.3125,207092.140625,148651.53125,160363.84375,131170.765625,142009.9375,0.0
1713487685.318761,155563.046875,147395.546875,222736.9375,207106.625,148654.671875,160362.421875,131167.546875,142011.71875,0.0
1713487685.3187745,155527.734375,147389.46875,222716.1875,207080.078125,148644.203125,160352.234375,131155.84375,141992.0625,0.0
1713487685.318781,155481.875,147389.28125,222685.25,207047.53125,148631.78125,160341.40625,131138.046875,141967.828125,0.0
1713487685.3187857,155526.484375,147394.828125,222704.65625,207074.890625,148643.671875,160352.5,131147.4375,141986.421875,0.0
1713487685.3236418,155526.484375,147394.828125,222704.65625,207074.890625,148643.671875,160352.5,131147.4375,141986.421875,0.0
1713487685.3236504,155526.484375,147394.828125,222704.65625,207074.890625,148643.671875,160352.5,131147.4375,141986.421875,0.0
1713487685.323655,155526.484375,147394.828125,222704.65625,207074.890625,148643.671875,160352.5,131147.4375,141986.421875,0.0
1713487685.323659,155526.484375,147394.828125,222704.65625,207074.890625,148643.671875,160352.5,131147.4375,141986.421875,0.0
1713487685.3236625,155526.484375,147394.828125,222704.65625,207074.890625,148643.671875,160352.5,131147.4375,141986.421875,0.0
1713487685.3236651,155526.484375,147394.828125,222704.65625,207074.890625,148643.671875,160352.5,131147.4375,141986.421875,0.0
1713487685.3236685,155526.484375,147394.828125,222704.65625,207074.890625,148643.671875,160352.5,131147.4375,141986.421875,0.0
1713487685.3236709,155526.484375,147394.828125,222704.65625,207074.890625,148643.671875,160352.5,131147.4375,141986.421875,0.0
1713487685.323674,155526.484375,147394.828125,222704.65625,207074.890625,148643.671875,160352.5,131147.4375,141986.421875,0.0
1713487685.3236768,155526.484375,147394.828125,222704.65625,207074.890625,148643.671875,160352.5,131147.4375,141986.421875,0.0
1713487685.3236792,155526.484375,147394.828125,222704.65625,207074.890625,148643.671875,160352.5,131147.4375,141986.421875,0.0
1713487685.3236814,155526.484375,147394.828125,222704.65625,207074.890625,148643.671875,160352.5,131147.4375,141986.421875,0.0
1713487685.3236835,155526.484375,147394.828125,222704.65625,207074.890625,148643.671875,160352.5,131147.4375,141986.421875,0.0
1713487685.323686,155526.484375,147394.828125,222704.65625,207074.890625,148643.671875,160352.5,131147.4375,141986.421875,0.0
1713487685.3236883,155526.484375,147394.828125,222704.65625,207074.890625,148643.671875,160352.5,131147.4375,141986.421875,0.0
1713487685.3236904,155526.484375,147394.828125,222704.65625,207074.890625,148643.671875,160352.5,131147.4375,141986.421875,0.0
1713487685.3236928,155526.484375,147394.828125,222704.65625,207074.890625,148643.671875,160352.5,131147.4375,141986.421875,0.0
1713487685.323696,155526.484375,147394.828125,222704.65625,207074.890625,148643.671875,160352.5,131147.4375,141986.421875,0.0
1713487685.323698,155526.484375,147394.828125,222704.65625,207074.890625,148643.671875,160352.5,131147.4375,141986.421875,0.0
1713487685.3237004,155526.484375,147394.828125,222704.65625,207074.890625,148643.671875,160352.5,131147.4375,141986.421875,0.0
1713487685.3237026,155518.890625,147395.90625,222632.234375,207024.109375,148638.296875,160359.375,131146.90625,141990.625,0.0
1713487685.3349457,155563.859375,147414.234375,222661.65625,207057.71875,148664.40625,160384.859375,131176.5,142025.765625,0.0
1713487685.334958,155550.171875,147422.640625,222657.8125,207053.25,148672.1875,160391.5625,131180.34375,142023.53125,0.0
1713487685.34364,155521.484375,147436.859375,222643.40625,207034.03125,148678.171875,160402.296875,131191.875,142017.0,0.0
1713487685.3487265,155575.84375,147447.21875,222668.71875,207062.015625,148695.53125,160415.53125,131212.34375,142043.90625,0.0
1713487685.3537009,155605.25,147440.875,222677.75,207079.71875,148692.484375,160403.8125,131190.53125,142043.203125,0.0
1713487685.3624325,155575.125,147431.046875,222657.8125,207057.1875,148680.0625,160391.390625,131173.09375,142022.90625,0.0
1713487685.36747,155517.28125,147427.546875,222621.0625,207013.28125,148667.359375,160383.4375,131163.703125,142000.453125,0.0
1713487685.3862965,155544.28125,147429.609375,222629.734375,207032.234375,148675.234375,160390.3125,131177.5625,142017.71875,0.0
1713487685.3863084,155580.21875,147427.734375,222645.5625,207056.375,148680.953125,160394.0625,131181.765625,142032.46875,0.0
1713487685.3863132,155569.40625,147428.625,222642.25,207044.390625,148684.34375,160396.21875,131185.796875,142032.296875,0.0
1713487685.3975644,155521.296875,147429.875,222614.265625,207009.0,148675.578125,160389.328125,131172.109375,142006.546875,0.0
1713487685.5149913,155534.078125,147426.03125,222612.03125,207011.859375,148674.875,160385.75,131170.6875,142007.96875,0.0
1713487685.5150034,155574.59375,147418.796875,222627.5,207037.78125,148679.703125,160386.375,131177.03125,142025.765625,0.0
1713487685.5150087,155569.9375,147416.734375,222625.0,207037.15625,148678.359375,160383.078125,131172.375,142021.03125,0.0
1713487685.5387936,155524.15625,147421.75,222601.5625,207009.703125,148674.609375,160382.359375,131168.890625,142004.75,0.0
1713487685.5674844,155520.859375,147423.265625,222592.8125,207003.53125,148674.15625,160384.140625,131169.515625,142001.71875,0.0
1713487685.5674953,155579.5,147429.96875,222621.0625,207044.390625,148689.71875,160397.28125,131189.375,142031.84375,0.0
1713487685.5675,155596.484375,147441.859375,222632.59375,207051.1875,148699.546875,160407.390625,131202.59375,142045.796875,0.0
1713487685.5675037,155547.5,147436.40625,222600.859375,207014.09375,148677.640625,160387.90625,131170.40625,142011.640625,0.0
1713487685.5675075,155526.21875,147431.75,222579.671875,206994.234375,148661.640625,160374.484375,131152.171875,141991.78125,0.0
1713487685.5675116,155584.515625,147430.6875,222602.375,207027.328125,148667.265625,160377.078125,131163.0,142012.171875,0.0
1713487685.5787106,155601.140625,147432.65625,222613.015625,207043.59375,148674.328125,160380.484375,131173.09375,142024.25,0.0
1713487685.6147206,155556.53125,147425.40625,222585.65625,207004.796875,148662.265625,160367.6875,131161.296875,142002.78125,0.0
1713487685.614732,155523.0,147426.296875,222562.40625,206977.4375,148657.703125,160364.46875,131155.21875,141989.90625,0.0
1713487685.6147366,155564.484375,147425.140625,222581.1875,207007.5625,148672.015625,160375.65625,131171.484375,142017.53125,0.0
1713487685.6147404,155583.703125,147422.1875,222589.40625,207019.0,148678.984375,160379.9375,131178.375,142028.265625,0.0
1713487685.614744,155546.25,147415.9375,222569.65625,206994.6875,148672.453125,160376.1875,131173.546875,142014.5,0.0
1713487685.614748,155502.25,147417.8125,222543.28125,206963.84375,148667.09375,160377.0,131173.984375,142000.375,0.0
1713487685.6147518,155547.765625,147422.90625,222561.96875,206993.609375,148678.359375,160387.984375,131192.9375,142026.390625,0.0
1713487685.6147554,155582.984375,147423.890625,222576.984375,207014.265625,148679.15625,160386.375,131182.484375,142033.09375,0.0
1713487685.6147597,155568.953125,147424.515625,222570.453125,207003.0,148675.765625,160383.15625,131174.4375,142023.796875,0.0
1713487685.617404,155513.796875,147418.609375,222533.53125,206957.140625,148658.59375,160370.90625,131157.625,141992.40625,0.0
1713487685.6174147,155548.921875,147423.34375,222546.046875,206975.640625,148666.109375,160376.359375,131164.0625,142004.390625,0.0
1713487685.632146,155548.921875,147423.34375,222546.046875,206975.640625,148666.109375,160376.359375,131164.0625,142004.390625,0.0
1713487685.6321568,155548.921875,147423.34375,222546.046875,206975.640625,148666.109375,160376.359375,131164.0625,142004.390625,0.0
1713487685.6321604,155548.921875,147423.34375,222546.046875,206975.640625,148666.109375,160376.359375,131164.0625,142004.390625,0.0
1713487685.6321635,155548.921875,147423.34375,222546.046875,206975.640625,148666.109375,160376.359375,131164.0625,142004.390625,0.0
1713487685.6321669,155548.921875,147423.34375,222546.046875,206975.640625,148666.109375,160376.359375,131164.0625,142004.390625,0.0
1713487685.6321697,155548.921875,147423.34375,222546.046875,206975.640625,148666.109375,160376.359375,131164.0625,142004.390625,0.0
1713487685.6321733,155548.921875,147423.34375,222546.046875,206975.640625,148666.109375,160376.359375,131164.0625,142004.390625,0.0
1713487685.6321762,155505.203125,147414.59375,222500.1875,206952.484375,148667.1875,160378.953125,131176.3125,142017.265625,0.0
1713487685.6321857,155555.0,147407.171875,222518.0625,206980.5625,148670.046875,160377.265625,131183.28125,142038.734375,0.0
1713487685.6321921,155557.6875,147402.515625,222514.484375,206971.625,148665.390625,160370.640625,131176.140625,142035.421875,0.0
1713487685.6321986,155510.484375,147399.921875,222485.15625,206935.859375,148651.265625,160359.296875,131154.5,142006.984375,0.0
1713487685.6397808,155497.421875,147406.71875,222473.984375,206926.65625,148651.171875,160360.546875,131153.875,141999.390625,0.0
1713487685.6397965,155552.765625,147409.40625,222500.1875,206962.328125,148663.15625,160368.3125,131167.828125,142024.25,0.0
1713487685.6398003,155570.296875,147415.484375,222512.34375,206973.234375,148670.40625,160372.25,131171.9375,142033.1875,0.0
1713487685.6398048,155532.65625,147418.796875,222492.578125,206945.875,148665.65625,160370.015625,131166.65625,142017.359375,0.0
1713487685.6442456,155497.421875,147417.265625,222466.828125,206921.46875,148658.421875,160366.984375,131159.6875,142000.28125,0.0
1713487685.6467705,155554.5625,147420.84375,222493.65625,206960.984375,148674.328125,160381.640625,131179.4375,142027.015625,0.0
1713487685.6505904,155578.078125,147420.140625,222504.03125,206966.4375,148679.96875,160387.1875,131187.671875,142037.65625,0.0
1713487685.6536431,155550.984375,147420.484375,222490.890625,206944.984375,148677.1875,160384.59375,131183.375,142027.28125,0.0
1713487685.653658,155513.34375,147423.265625,222466.03125,206921.015625,148670.9375,160379.671875,131174.078125,142010.390625,0.0
1713487685.695593,155558.3125,147419.859375,222479.0,206945.328125,148674.515625,160381.1875,131181.328125,142027.1875,0.0
1713487685.6980722,155590.59375,147418.25,222494.453125,206969.828125,148681.125,160386.46875,131193.484375,142045.078125,0.0
1713487685.7005804,155567.078125,147420.671875,222486.234375,206957.140625,148680.6875,160387.984375,131196.96875,142044.53125,0.0
1713487685.708104,155517.28125,147422.640625,222457.171875,206924.140625,148669.859375,160378.609375,131184.265625,142024.15625,0.0
1713487685.7105403,155541.234375,147417.890625,222457.796875,206932.90625,148668.4375,160377.0,131178.640625,142021.03125,0.0
1713487685.7148285,155580.84375,147418.078125,222473.453125,206953.5625,148678.890625,160390.140625,131196.609375,142044.625,0.0
1713487685.7148573,155565.203125,147417.453125,222467.28125,206945.609375,148678.53125,160388.796875,131191.875,142041.234375,0.0
1713487685.7148695,155503.6875,147414.328125,222430.09375,206900.8125,148660.203125,160372.703125,131165.765625,142005.828125,0.0
1713487685.7148802,155518.890625,147418.796875,222431.96875,206902.859375,148661.8125,160374.046875,131169.609375,142010.109375,0.0
1713487685.7223313,155518.890625,147418.796875,222431.96875,206902.859375,148661.8125,160374.046875,131169.609375,142010.109375,0.0
1713487685.7223368,155518.890625,147418.796875,222431.96875,206902.859375,148661.8125,160374.046875,131169.609375,142010.109375,0.0
1713487685.7223403,155518.890625,147418.796875,222431.96875,206902.859375,148661.8125,160374.046875,131169.609375,142010.109375,0.0
1713487685.7223427,155518.890625,147418.796875,222431.96875,206902.859375,148661.8125,160374.046875,131169.609375,142010.109375,0.0
1713487685.722345,155518.890625,147418.796875,222431.96875,206902.859375,148661.8125,160374.046875,131169.609375,142010.109375,0.0
1713487685.7223475,155518.890625,147418.796875,222431.96875,206902.859375,148661.8125,160374.046875,131169.609375,142010.109375,0.0
1713487685.7223501,155518.890625,147418.796875,222431.96875,206902.859375,148661.8125,160374.046875,131169.609375,142010.109375,0.0
1713487685.7223525,155518.890625,147418.796875,222431.96875,206902.859375,148661.8125,160374.046875,131169.609375,142010.109375,0.0
1713487685.722355,155518.890625,147418.796875,222431.96875,206902.859375,148661.8125,160374.046875,131169.609375,142010.109375,0.0
1713487685.7223573,155518.890625,147418.796875,222431.96875,206902.859375,148661.8125,160374.046875,131169.609375,142010.109375,0.0
1713487685.7223597,155518.890625,147418.796875,222431.96875,206902.859375,148661.8125,160374.046875,131169.609375,142010.109375,0.0
1713487685.7223628,155518.890625,147418.796875,222431.96875,206902.859375,148661.8125,160374.046875,131169.609375,142010.109375,0.0
1713487685.7223651,155518.890625,147418.796875,222431.96875,206902.859375,148661.8125,160374.046875,131169.609375,142010.109375,0.0
1713487685.7223675,155518.890625,147418.796875,222431.96875,206902.859375,148661.8125,160374.046875,131169.609375,142010.109375,0.0
1713487685.72237,155518.890625,147418.796875,222431.96875,206902.859375,148661.8125,160374.046875,131169.609375,142010.109375,0.0
1713487685.722372,155518.890625,147418.796875,222431.96875,206902.859375,148661.8125,160374.046875,131169.609375,142010.109375,0.0
1713487685.7223744,155518.890625,147418.796875,222431.96875,206902.859375,148661.8125,160374.046875,131169.609375,142010.109375,0.0
1713487685.7223768,155518.890625,147418.796875,222431.96875,206902.859375,148661.8125,160374.046875,131169.609375,142010.109375,0.0
1713487685.7223787,155518.890625,147418.796875,222431.96875,206902.859375,148661.8125,160374.046875,131169.609375,142010.109375,0.0
1713487685.7223828,155518.890625,147418.796875,222431.96875,206902.859375,148661.8125,160374.046875,131169.609375,142010.109375,0.0
1713487685.7223847,155518.890625,147418.796875,222431.96875,206902.859375,148661.8125,160374.046875,131169.609375,142010.109375,0.0
1713487685.7223873,155518.890625,147418.796875,222431.96875,206902.859375,148661.8125,160374.046875,131169.609375,142010.109375,0.0
1713487685.7223895,155518.890625,147418.796875,222431.96875,206902.859375,148661.8125,160374.046875,131169.609375,142010.109375,0.0
1713487685.7223916,155518.890625,147418.796875,222431.96875,206902.859375,148661.8125,160374.046875,131169.609375,142010.109375,0.0
1713487685.7223938,155518.890625,147418.796875,222431.96875,206902.859375,148661.8125,160374.046875,131169.609375,142010.109375,0.0
1713487685.722396,155518.890625,147418.796875,222431.96875,206902.859375,148661.8125,160374.046875,131169.609375,142010.109375,0.0
1713487685.7223983,155518.890625,147418.796875,222431.96875,206902.859375,148661.8125,160374.046875,131169.609375,142010.109375,0.0
1713487685.7224007,155518.890625,147418.796875,222431.96875,206902.859375,148661.8125,160374.046875,131169.609375,142010.109375,0.0
1713487685.7224035,155518.890625,147418.796875,222431.96875,206902.859375,148661.8125,160374.046875,131169.609375,142010.109375,0.0
1713487685.7224057,155518.890625,147418.796875,222431.96875,206902.859375,148661.8125,160374.046875,131169.609375,142010.109375,0.0
1713487685.722408,155518.890625,147418.796875,222431.96875,206902.859375,148661.8125,160374.046875,131169.609375,142010.109375,0.0
1713487685.7224104,155518.890625,147418.796875,222431.96875,206902.859375,148661.8125,160374.046875,131169.609375,142010.109375,0.0
1713487685.7224123,155518.890625,147418.796875,222431.96875,206902.859375,148661.8125,160374.046875,131169.609375,142010.109375,0.0
1713487685.7224147,155518.890625,147418.796875,222431.96875,206902.859375,148661.8125,160374.046875,131169.609375,142010.109375,0.0
1713487685.7224183,155518.890625,147418.796875,222431.96875,206902.859375,148661.8125,160374.046875,131169.609375,142010.109375,0.0
1713487685.7224207,155518.890625,147418.796875,222431.96875,206902.859375,148661.8125,160374.046875,131169.609375,142010.109375,0.0
1713487685.7224236,155518.890625,147418.796875,222431.96875,206902.859375,148661.8125,160374.046875,131169.609375,142010.109375,0.0
1713487685.722426,155518.890625,147418.796875,222431.96875,206902.859375,148661.8125,160374.046875,131169.609375,142010.109375,0.0
1713487685.722428,155518.890625,147418.796875,222431.96875,206902.859375,148661.8125,160374.046875,131169.609375,142010.109375,0.0
1713487685.7224305,155518.890625,147418.796875,222431.96875,206902.859375,148661.8125,160374.046875,131169.609375,142010.109375,0.0
1713487685.7224329,155518.890625,147418.796875,222431.96875,206902.859375,148661.8125,160374.046875,131169.609375,142010.109375,0.0
1713487685.722435,155518.890625,147418.796875,222431.96875,206902.859375,148661.8125,160374.046875,131169.609375,142010.109375,0.0
1713487685.7224371,155518.890625,147418.796875,222431.96875,206902.859375,148661.8125,160374.046875,131169.609375,142010.109375,0.0
1713487685.7224395,155518.890625,147418.796875,222431.96875,206902.859375,148661.8125,160374.046875,131169.609375,142010.109375,0.0
1713487685.722442,155518.890625,147418.796875,222431.96875,206902.859375,148661.8125,160374.046875,131169.609375,142010.109375,0.0
1713487685.722446,155518.890625,147418.796875,222431.96875,206902.859375,148661.8125,160374.046875,131169.609375,142010.109375,0.0
1713487685.722448,155518.890625,147418.796875,222431.96875,206902.859375,148661.8125,160374.046875,131169.609375,142010.109375,0.0
1713487685.7224505,155518.890625,147418.796875,222431.96875,206902.859375,148661.8125,160374.046875,131169.609375,142010.109375,0.0
1713487685.7224526,155518.890625,147418.796875,222431.96875,206902.859375,148661.8125,160374.046875,131169.609375,142010.109375,0.0
1713487685.7224548,155518.890625,147418.796875,222431.96875,206902.859375,148661.8125,160374.046875,131169.609375,142010.109375,0.0
1713487685.7224572,155518.890625,147418.796875,222431.96875,206902.859375,148661.8125,160374.046875,131169.609375,142010.109375,0.0
1713487685.7224593,155518.890625,147418.796875,222431.96875,206902.859375,148661.8125,160374.046875,131169.609375,142010.109375,0.0
1713487685.7224617,155533.375,147422.640625,222273.453125,206803.984375,148669.140625,160379.40625,131166.921875,142010.5625,0.0
1713487685.7224684,155530.953125,147426.75,222266.65625,206800.3125,148668.25,160384.765625,131176.3125,142012.703125,0.0
1713487685.722472,155579.859375,147430.6875,222289.984375,206832.5,148682.828125,160399.078125,131202.78125,142044.09375,0.0
1713487685.7224755,155591.75,147434.890625,222296.6875,206838.5,148685.0625,160397.109375,131191.328125,142042.65625,0.0
1713487685.7282817,155551.609375,147435.953125,222271.390625,206808.09375,148674.15625,160385.84375,131168.453125,142018.25,0.0
1713487685.728288,155522.90625,147427.734375,222243.859375,206780.296875,148661.109375,160377.703125,131158.171875,141999.75,0.0
1713487685.728298,155565.109375,147422.546875,222259.046875,206805.40625,148669.59375,160386.109375,131176.671875,142023.796875,0.0
1713487685.728302,155576.828125,147422.546875,222266.46875,206813.375,148676.296875,160391.921875,131188.109375,142034.078125,0.0
1713487685.728306,155546.515625,147427.546875,222255.125,206795.578125,148674.0625,160388.796875,131175.15625,142015.5625,0.0
1713487685.7283096,155518.890625,147431.75,222235.359375,206768.484375,148665.578125,160380.21875,131156.28125,141993.578125,0.0
1713487685.749758,155572.984375,147433.8125,222256.1875,206797.09375,148673.265625,160383.609375,131169.078125,142015.21875,0.0
1713487685.7497735,155599.265625,147434.078125,222270.3125,206815.96875,148680.6875,160390.671875,131181.953125,142033.90625,0.0
1713487685.7497785,155568.5,147432.921875,222256.734375,206798.078125,148680.140625,160390.3125,131180.25,142029.515625,0.0
1713487685.749782,155517.546875,147427.734375,222224.1875,206765.8125,148669.5,160381.109375,131167.015625,142007.34375,0.0
1713487685.7497857,155561.265625,147433.1875,222245.734375,206798.703125,148687.296875,160394.609375,131191.421875,142037.828125,0.0
1713487685.7497895,155592.015625,147433.546875,222263.4375,206821.234375,148699.71875,160403.71875,131207.78125,142064.203125,0.0
1713487685.749793,155564.03125,147423.53125,222245.109375,206797.09375,148686.671875,160392.1875,131191.15625,142044.09375,0.0
1713487685.7497964,155514.421875,147421.921875,222212.734375,206760.4375,148673.796875,160384.59375,131175.59375,142019.328125,0.0
1713487685.7498007,155547.9375,147423.53125,222223.296875,206781.625,148678.171875,160386.65625,131176.84375,142032.46875,0.0
1713487685.7557733,155585.578125,147421.828125,222239.203125,206807.109375,148682.296875,160389.6875,131180.515625,142040.875,0.0
1713487685.7557836,155569.578125,147422.09375,222232.046875,206793.515625,148679.15625,160389.515625,131180.515625,142031.390625,0.0
1713487685.755788,155521.5625,147424.875,222203.0,206759.453125,148669.140625,160383.4375,131171.125,142008.953125,0.0
1713487685.7557917,155537.84375,147429.078125,222203.984375,206767.765625,148672.453125,160385.671875,131174.265625,142016.546875,0.0
1713487685.7557952,155583.796875,147428.890625,222223.921875,206793.515625,148679.875,160389.515625,131183.109375,142036.578125,0.0
1713487685.755799,155584.421875,147434.265625,222228.5625,206791.46875,148687.203125,160395.953125,131192.046875,142039.890625,0.0
1713487685.7592385,155530.515625,147434.796875,222201.46875,206759.09375,148680.859375,160391.921875,131185.4375,142020.484375,0.0
1713487685.7592492,155518.625,147430.234375,222188.6875,206753.015625,148674.78125,160385.484375,131177.75,142015.296875,0.0
1713487685.7592547,155559.65625,147421.296875,222203.078125,206772.875,148677.828125,160388.96875,131186.6875,142035.59375,0.0
1713487685.7617855,155564.9375,147420.140625,222207.375,206777.703125,148681.84375,160393.359375,131188.203125,142036.765625,0.0
1713487685.7642517,155521.921875,147418.53125,222183.59375,206748.546875,148672.453125,160387.09375,131177.484375,142014.40625,0.0
1713487685.7667816,155515.484375,147428.625,222176.703125,206741.3125,148674.328125,160389.953125,131182.03125,142012.359375,0.0
1713487685.7730408,155580.75,147437.75,222209.15625,206782.703125,148689.984375,160399.515625,131194.640625,142037.46875,0.0
1713487685.7767587,155596.765625,147438.109375,222215.6875,206789.234375,148690.875,160396.296875,131187.671875,142037.125,0.0
1713487685.8023808,155556.796875,147434.53125,222190.828125,206753.734375,148680.328125,160383.515625,131173.0,142019.421875,0.0
1713487685.8023925,155517.015625,147433.359375,222162.3125,206724.328125,148670.578125,160376.28125,131161.828125,142001.890625,0.0
1713487685.8268385,155572.703125,147439.171875,222186.09375,206757.484375,148686.578125,160389.875,131185.34375,142033.625,0.0
1713487685.8518608,155582.8125,147425.9375,222184.9375,206759.09375,148680.140625,160382.53125,131182.125,142036.484375,0.0
1713487685.8780892,155546.515625,147419.15625,222164.28125,206734.328125,148669.59375,160376.1875,131173.546875,142020.484375,0.0
1713487685.9393737,155506.1875,147423.265625,222139.609375,206710.8125,148663.875,160378.25,131172.734375,142006.0,0.0
1713487685.944358,155552.59375,147430.765625,222160.609375,206744.96875,148679.25,160391.65625,131196.15625,142037.46875,0.0
1713487685.9516664,155570.828125,147419.953125,222162.84375,206750.15625,148671.5625,160381.90625,131184.0,142035.6875,0.0
1713487685.951677,155545.265625,147415.125,222147.46875,206728.25,148659.3125,160370.015625,131160.84375,142010.203125,0.0
1713487685.951682,155497.515625,147418.609375,222118.0625,206691.78125,148648.671875,160363.765625,131144.3125,141983.734375,0.0
1713487685.9555132,155532.921875,147424.6875,222130.3125,206709.75,148659.3125,160372.96875,131160.484375,142002.515625,0.0
1713487685.9555323,155532.921875,147424.6875,222130.3125,206709.75,148659.3125,160372.96875,131160.484375,142002.515625,0.0
1713487685.955536,155532.921875,147424.6875,222130.3125,206709.75,148659.3125,160372.96875,131160.484375,142002.515625,0.0
1713487685.9555418,155532.921875,147424.6875,222130.3125,206709.75,148659.3125,160372.96875,131160.484375,142002.515625,0.0
1713487685.9555464,155532.921875,147424.6875,222130.3125,206709.75,148659.3125,160372.96875,131160.484375,142002.515625,0.0
1713487685.9555488,155532.921875,147424.6875,222130.3125,206709.75,148659.3125,160372.96875,131160.484375,142002.515625,0.0
1713487685.9555516,155532.921875,147424.6875,222130.3125,206709.75,148659.3125,160372.96875,131160.484375,142002.515625,0.0
1713487685.9555557,155532.921875,147424.6875,222130.3125,206709.75,148659.3125,160372.96875,131160.484375,142002.515625,0.0
1713487685.9555593,155532.921875,147424.6875,222130.3125,206709.75,148659.3125,160372.96875,131160.484375,142002.515625,0.0
1713487685.9555633,155532.921875,147424.6875,222130.3125,206709.75,148659.3125,160372.96875,131160.484375,142002.515625,0.0
1713487685.955568,155532.921875,147424.6875,222130.3125,206709.75,148659.3125,160372.96875,131160.484375,142002.515625,0.0
1713487685.955572,155532.921875,147424.6875,222130.3125,206709.75,148659.3125,160372.96875,131160.484375,142002.515625,0.0
1713487685.9555752,155532.921875,147424.6875,222130.3125,206709.75,148659.3125,160372.96875,131160.484375,142002.515625,0.0
1713487685.9555776,155532.921875,147424.6875,222130.3125,206709.75,148659.3125,160372.96875,131160.484375,142002.515625,0.0
1713487685.95558,155532.921875,147424.6875,222130.3125,206709.75,148659.3125,160372.96875,131160.484375,142002.515625,0.0
1713487685.9555824,155532.921875,147424.6875,222130.3125,206709.75,148659.3125,160372.96875,131160.484375,142002.515625,0.0
1713487685.9555848,155532.921875,147424.6875,222130.3125,206709.75,148659.3125,160372.96875,131160.484375,142002.515625,0.0
1713487685.9555871,155532.921875,147424.6875,222130.3125,206709.75,148659.3125,160372.96875,131160.484375,142002.515625,0.0
1713487685.9555905,155532.921875,147424.6875,222130.3125,206709.75,148659.3125,160372.96875,131160.484375,142002.515625,0.0
1713487685.955593,155532.921875,147424.6875,222130.3125,206709.75,148659.3125,160372.96875,131160.484375,142002.515625,0.0
1713487685.9555953,155532.921875,147424.6875,222130.3125,206709.75,148659.3125,160372.96875,131160.484375,142002.515625,0.0
1713487685.9555979,155532.921875,147424.6875,222130.3125,206709.75,148659.3125,160372.96875,131160.484375,142002.515625,0.0
1713487685.9556,155532.921875,147424.6875,222130.3125,206709.75,148659.3125,160372.96875,131160.484375,142002.515625,0.0
1713487685.9556031,155532.921875,147424.6875,222130.3125,206709.75,148659.3125,160372.96875,131160.484375,142002.515625,0.0
1713487685.955607,155532.921875,147424.6875,222130.3125,206709.75,148659.3125,160372.96875,131160.484375,142002.515625,0.0
1713487685.9556105,155532.921875,147424.6875,222130.3125,206709.75,148659.3125,160372.96875,131160.484375,142002.515625,0.0
1713487685.955614,155532.921875,147424.6875,222130.3125,206709.75,148659.3125,160372.96875,131160.484375,142002.515625,0.0
1713487685.9556184,155532.921875,147424.6875,222130.3125,206709.75,148659.3125,160372.96875,131160.484375,142002.515625,0.0
1713487685.9556265,155532.921875,147424.6875,222130.3125,206709.75,148659.3125,160372.96875,131160.484375,142002.515625,0.0
1713487685.955648,155532.921875,147424.6875,222130.3125,206709.75,148659.3125,160372.96875,131160.484375,142002.515625,0.0
1713487685.9556668,155532.921875,147424.6875,222130.3125,206709.75,148659.3125,160372.96875,131160.484375,142002.515625,0.0
1713487685.9556751,155532.921875,147424.6875,222130.3125,206709.75,148659.3125,160372.96875,131160.484375,142002.515625,0.0
1713487685.955679,155532.921875,147424.6875,222130.3125,206709.75,148659.3125,160372.96875,131160.484375,142002.515625,0.0
1713487685.955682,155532.921875,147424.6875,222130.3125,206709.75,148659.3125,160372.96875,131160.484375,142002.515625,0.0
1713487685.9556856,155532.921875,147424.6875,222130.3125,206709.75,148659.3125,160372.96875,131160.484375,142002.515625,0.0
1713487685.9556909,155532.921875,147424.6875,222130.3125,206709.75,148659.3125,160372.96875,131160.484375,142002.515625,0.0
1713487685.9556944,155532.921875,147424.6875,222130.3125,206709.75,148659.3125,160372.96875,131160.484375,142002.515625,0.0
1713487685.9556985,155532.921875,147424.6875,222130.3125,206709.75,148659.3125,160372.96875,131160.484375,142002.515625,0.0
1713487685.9557023,155532.921875,147424.6875,222130.3125,206709.75,148659.3125,160372.96875,131160.484375,142002.515625,0.0
1713487685.9557064,155532.921875,147424.6875,222130.3125,206709.75,148659.3125,160372.96875,131160.484375,142002.515625,0.0
1713487685.9557104,155532.921875,147424.6875,222130.3125,206709.75,148659.3125,160372.96875,131160.484375,142002.515625,0.0
1713487685.9557145,155532.921875,147424.6875,222130.3125,206709.75,148659.3125,160372.96875,131160.484375,142002.515625,0.0
1713487685.9557183,155532.921875,147424.6875,222130.3125,206709.75,148659.3125,160372.96875,131160.484375,142002.515625,0.0
1713487685.955722,155532.921875,147424.6875,222130.3125,206709.75,148659.3125,160372.96875,131160.484375,142002.515625,0.0
1713487685.955727,155532.921875,147424.6875,222130.3125,206709.75,148659.3125,160372.96875,131160.484375,142002.515625,0.0
1713487685.9557312,155532.921875,147424.6875,222130.3125,206709.75,148659.3125,160372.96875,131160.484375,142002.515625,0.0
1713487685.9557352,155532.921875,147424.6875,222130.3125,206709.75,148659.3125,160372.96875,131160.484375,142002.515625,0.0
1713487685.9557393,155600.96875,147444.453125,222033.125,206675.328125,148693.28125,160398.265625,131194.546875,142045.796875,0.0
1713487685.955746,155586.125,147449.375,222027.578125,206667.09375,148696.5,160404.0,131196.25,142044.71875,0.0
1713487685.958119,155540.34375,147455.09375,221999.234375,206635.8125,148693.921875,160406.5,131195.171875,142031.84375,0.0
1713487685.964341,155567.96875,147456.796875,222006.203125,206651.1875,148702.3125,160414.984375,131207.703125,142049.453125,0.0
1713487685.967469,155602.921875,147453.390625,222023.546875,206681.765625,148709.203125,160417.859375,131210.015625,142065.015625,0.0
1713487685.9675004,155586.03125,147451.0625,222016.046875,206669.515625,148706.515625,160414.984375,131204.5625,142058.3125,0.0
1713487685.9850683,155526.390625,147446.6875,221980.015625,206626.515625,148691.234375,160402.921875,131191.78125,142033.265625,0.0
1713487685.9850843,155537.75,147443.734375,221974.375,206623.921875,148684.078125,160393.71875,131186.328125,142029.15625,0.0
1713487685.9850907,155595.0625,147445.703125,221997.625,206652.703125,148690.34375,160396.578125,131195.53125,142048.203125,0.0
1713487685.9850965,155596.21875,147443.828125,221996.546875,206650.734375,148688.734375,160394.15625,131195.890625,142045.25,0.0
1713487685.985102,155541.140625,147433.984375,221959.09375,206607.734375,148669.328125,160378.953125,131175.421875,142011.546875,0.0
1713487685.9851077,155540.34375,147437.03125,221952.65625,206605.046875,148673.53125,160384.859375,131187.84375,142016.828125,0.0
1713487685.9851131,155595.0625,147440.34375,221979.5625,206642.6875,148689.625,160397.828125,131204.65625,142046.953125,0.0
1713487685.9851189,155596.3125,147436.40625,221980.8125,206643.5,148691.328125,160398.546875,131197.859375,142045.25,0.0
1713487685.989354,155553.75,147440.96875,221958.109375,206611.84375,148689.09375,160402.390625,131193.390625,142031.03125,0.0
1713487685.9942987,155540.078125,147446.421875,221943.171875,206598.703125,148688.453125,160406.40625,131194.828125,142026.203125,0.0
1713487685.9993308,155594.25,147447.40625,221966.15625,206630.796875,148700.078125,160413.203125,131210.640625,142054.109375,0.0
1713487686.0018537,155606.953125,147450.078125,221974.640625,206638.765625,148705.09375,160415.703125,131212.4375,142064.921875,0.0
1713487686.006858,155568.421875,147448.03125,221953.453125,206611.75,148695.34375,160411.140625,131200.8125,142046.0625,0.0
1713487686.0093856,155528.0,147440.25,221922.078125,206579.125,148680.40625,160401.9375,131189.015625,142022.09375,0.0
1713487686.0118408,155574.140625,147434.078125,221936.65625,206602.453125,148682.015625,160398.8125,131191.421875,142035.859375,0.0
1713487686.0221164,155601.046875,147439.359375,221952.03125,206623.203125,148691.40625,160403.1875,131198.75,142052.578125,0.0
1713487686.0221283,155573.25,147444.546875,221940.578125,206607.28125,148692.484375,160405.609375,131200.71875,142044.71875,0.0
1713487686.0221329,155536.046875,147455.71875,221919.484375,206585.03125,148691.046875,160408.28125,131201.078125,142034.53125,0.0
1713487686.0221367,155588.625,147468.859375,221946.65625,206618.46875,148710.0,160422.953125,131221.90625,142069.390625,0.0
1713487686.0243397,155621.4375,147469.9375,221965.171875,206641.703125,148718.328125,160426.34375,131227.015625,142081.734375,0.0
1713487686.0268476,155593.71875,147464.203125,221952.125,206624.8125,148710.984375,160418.125,131216.640625,142064.65625,0.0
1713487686.0353453,155534.265625,147453.75,221912.15625,206581.0,148691.40625,160402.203125,131192.5,142029.15625,0.0
1713487686.0353634,155555.984375,147443.640625,221912.25,206590.5625,148686.765625,160395.765625,131185.609375,142032.109375,0.0
1713487686.0353715,155592.28125,147437.828125,221926.8125,206611.21875,148691.671875,160400.0625,131196.96875,142050.171875,0.0
1713487686.0433917,155575.65625,147431.578125,221915.90625,206594.765625,148685.515625,160395.765625,131189.1875,142041.140625,0.0
1713487686.0434206,155528.546875,147434.890625,221889.0,206562.671875,148677.828125,160392.453125,131175.328125,142020.3125,0.0
1713487686.043434,155541.234375,147436.140625,221887.828125,206566.78125,148678.796875,160394.15625,131178.1875,142025.5,0.0
1713487686.0434456,155585.40625,147432.375,221905.890625,206588.59375,148684.609375,160395.328125,131190.359375,142046.765625,0.0
1713487686.0480852,155581.65625,147428.8125,221904.203125,206582.25,148683.0,160392.015625,131192.140625,142048.375,0.0
1713487686.0506186,155536.40625,147429.34375,221879.15625,206551.859375,148673.703125,160387.90625,131180.96875,142029.34375,0.0
1713487686.053094,155542.046875,147434.890625,221876.21875,206554.359375,148678.09375,160396.484375,131189.640625,142034.171875,0.0
1713487686.0556464,155601.9375,147438.8125,221900.4375,206587.34375,148693.203125,160412.125,131215.5625,142063.40625,0.0
1713487686.060624,155610.703125,147439.09375,221905.53125,206597.265625,148696.15625,160414.8125,131217.0,142061.53125,0.0
1713487686.0630732,155553.484375,147429.96875,221870.84375,206553.46875,148674.328125,160393.53125,131179.4375,142023.4375,0.0
1713487686.0655563,155531.9375,147432.03125,221853.5,206535.40625,148670.21875,160387.625,131169.96875,142014.3125,0.0
1713487686.0832915,155591.03125,147438.90625,221882.109375,206577.875,148689.4375,160400.59375,131195.453125,142046.0625,0.0
1713487686.0833125,155607.3125,147443.640625,221893.203125,206593.078125,148700.703125,160407.390625,131209.3125,142062.328125,0.0
1713487686.0833173,155567.875,147444.71875,221873.078125,206568.03125,148693.921875,160401.484375,131196.703125,142044.8125,0.0
1713487686.0833209,155527.734375,147443.640625,221844.65625,206542.5625,148680.59375,160390.3125,131176.046875,142020.75,0.0
1713487686.083325,155573.328125,147442.9375,221863.25,206572.234375,148689.71875,160395.234375,131188.03125,142043.90625,0.0
1713487686.0833285,155604.1875,147449.375,221882.5625,206591.734375,148702.234375,160405.328125,131203.140625,142064.921875,0.0
1713487686.083332,155576.28125,147450.984375,221871.921875,206573.484375,148698.5625,160404.890625,131199.46875,142055.53125,0.0
1713487686.0833364,155538.640625,147456.34375,221849.65625,206546.125,148693.734375,160405.609375,131196.078125,142040.515625,0.0
1713487686.0833397,155583.609375,147453.65625,221862.4375,206567.59375,148695.796875,160406.234375,131195.53125,142048.828125,0.0
1713487686.0833435,155615.796875,147450.265625,221873.703125,206576.984375,148698.5625,160410.34375,131196.25,142050.265625,0.0
1713487686.083347,155586.828125,147444.453125,221857.96875,206555.078125,148693.28125,160406.765625,131192.765625,142037.75,0.0
1713487686.083351,155532.390625,147439.09375,221824.625,206521.015625,148677.640625,160391.484375,131173.546875,142010.203125,0.0
1713487686.0833545,155560.015625,147438.734375,221829.8125,206534.234375,148678.890625,160391.484375,131176.21875,142019.5,0.0
1713487686.083358,155598.8125,147439.71875,221847.25,206550.421875,148687.125,160397.90625,131190.078125,142042.125,0.0
1713487686.0833616,155591.03125,147447.40625,221850.546875,206547.828125,148693.015625,160402.734375,131192.671875,142043.828125,0.0
1713487686.083366,155539.890625,147451.15625,221825.34375,206513.234375,148685.78125,160397.28125,131182.3125,142023.796875,0.0
1713487686.0833695,155560.640625,147455.625,221831.15625,206519.671875,148691.140625,160400.15625,131190.4375,142034.4375,0.0
1713487686.0868075,155611.328125,147453.921875,221853.234375,206548.09375,148700.796875,160406.9375,131203.140625,142056.96875,0.0
1713487686.0892725,155604.0,147448.75,221846.265625,206539.6875,148695.609375,160403.71875,131198.75,142047.671875,0.0
1713487686.0965831,155550.984375,147447.046875,221813.625,206502.859375,148681.671875,160392.734375,131178.734375,142017.984375,0.0
1713487686.096606,155546.78125,147450.171875,221806.5625,206503.84375,148684.796875,160396.125,131183.921875,142022.640625,0.0
1713487686.0966122,155597.390625,147449.28125,221829.265625,206543.359375,148699.546875,160405.78125,131206.171875,142055.984375,0.0
1713487686.099265,155593.453125,147443.46875,221824.4375,206541.9375,148697.765625,160403.453125,131203.21875,142055.0,0.0
1713487686.105245,155543.390625,147441.6875,221797.359375,206510.09375,148690.515625,160399.609375,131191.609375,142036.765625,0.0
1713487686.105288,155522.375,147439.359375,221778.3125,206489.453125,148682.46875,160393.984375,131181.59375,142023.53125,0.0
1713487686.105307,155587.015625,147446.6875,221810.3125,206533.4375,148697.578125,160404.703125,131196.609375,142053.296875,0.0
1713487686.1053236,155603.375,147447.40625,221817.5625,206544.34375,148701.15625,160408.203125,131203.5,142063.9375,0.0
1713487686.1053395,155563.234375,147444.1875,221795.296875,206516.453125,148689.796875,160400.0625,131185.078125,142038.546875,0.0
1713487686.1092384,155526.03125,147441.40625,221768.75,206493.734375,148676.5625,160390.21875,131169.15625,142016.734375,0.0
1713487686.1170669,155575.5625,147439.53125,221786.625,206518.234375,148681.671875,160395.140625,131181.40625,142037.75,0.0
1713487686.1170833,155575.5625,147439.53125,221786.625,206518.234375,148681.671875,160395.140625,131181.40625,142037.75,0.0
1713487686.117088,155575.5625,147439.53125,221786.625,206518.234375,148681.671875,160395.140625,131181.40625,142037.75,0.0
1713487686.117092,155575.5625,147439.53125,221786.625,206518.234375,148681.671875,160395.140625,131181.40625,142037.75,0.0
1713487686.1170964,155575.5625,147439.53125,221786.625,206518.234375,148681.671875,160395.140625,131181.40625,142037.75,0.0
1713487686.1170998,155575.5625,147439.53125,221786.625,206518.234375,148681.671875,160395.140625,131181.40625,142037.75,0.0
1713487686.117103,155575.5625,147439.53125,221786.625,206518.234375,148681.671875,160395.140625,131181.40625,142037.75,0.0
1713487686.1171064,155575.5625,147439.53125,221786.625,206518.234375,148681.671875,160395.140625,131181.40625,142037.75,0.0
1713487686.11711,155575.5625,147439.53125,221786.625,206518.234375,148681.671875,160395.140625,131181.40625,142037.75,0.0
1713487686.117113,155575.5625,147439.53125,221786.625,206518.234375,148681.671875,160395.140625,131181.40625,142037.75,0.0
1713487686.1171176,155594.703125,147448.296875,221780.015625,206505.546875,148694.890625,160400.0625,131189.8125,142047.21875,0.0
1713487686.117123,155539.625,147448.921875,221749.609375,206470.9375,148687.65625,160399.34375,131187.3125,142031.125,0.0
1713487686.117129,155551.25,147450.265625,221748.625,206475.6875,148689.265625,160403.015625,131192.234375,142040.421875,0.0
1713487686.1220248,155588.09375,147442.03125,221760.421875,206497.40625,148690.34375,160402.65625,131197.6875,142054.28125,0.0
1713487686.1220376,155580.84375,147440.96875,221753.984375,206484.625,148690.515625,160402.65625,131198.3125,142048.296875,0.0
1713487686.1220434,155533.8125,147443.375,221725.203125,206450.28125,148682.734375,160397.5625,131188.03125,142026.75,0.0
1713487686.1220484,155538.015625,147447.9375,221721.265625,206454.3125,148685.0625,160396.84375,131190.078125,142030.765625,0.0
1713487686.1248608,155595.328125,147448.828125,221747.28125,206492.9375,148698.46875,160405.609375,131207.25,142057.0625,0.0
1713487686.1248715,155604.71875,147453.390625,221754.265625,206502.234375,148707.0625,160413.828125,131214.484375,142062.234375,0.0
1713487686.1267765,155559.921875,147454.734375,221733.078125,206475.6875,148700.265625,160408.46875,131201.171875,142040.875,0.0
1713487686.1292765,155533.375,147448.390625,221710.453125,206449.578125,148686.40625,160395.859375,131179.171875,142019.859375,0.0
1713487686.1317885,155584.78125,147447.484375,221732.796875,206481.21875,148696.6875,160405.515625,131192.3125,142044.359375,0.0
1713487686.1392884,155600.421875,147448.5625,221741.65625,206495.890625,148703.5625,160412.046875,131200.09375,142055.453125,0.0
1713487686.1417985,155566.625,147445.4375,221720.28125,206469.15625,148692.578125,160402.03125,131189.015625,142038.09375,0.0
1713487686.2400832,155540.796875,147445.171875,221699.359375,206449.125,148682.734375,160393.53125,131181.046875,142024.953125,0.0
1713487686.2401137,155580.84375,147438.90625,221712.15625,206470.671875,148684.796875,160391.921875,131187.9375,142041.859375,0.0
1713487686.240126,155599.0,147434.609375,221718.40625,206474.25,148682.46875,160388.53125,131185.171875,142041.59375,0.0
1713487686.2401369,155571.09375,147432.921875,221705.09375,206454.578125,148676.75,160383.515625,131178.90625,142025.5,0.0
1713487686.240147,155538.109375,147443.375,221689.0,206434.28125,148681.84375,160389.421875,131187.671875,142023.703125,0.0
1713487686.2418544,155582.71875,147447.671875,221709.015625,206459.765625,148694.8125,160399.171875,131206.171875,142053.203125,0.0
1713487686.244915,155611.421875,147443.734375,221721.359375,206477.46875,148695.96875,160399.96875,131199.203125,142054.546875,0.0
1713487686.2449398,155588.53125,147438.640625,221705.359375,206457.34375,148686.765625,160394.609375,131184.890625,142030.59375,0.0
1713487686.2474444,155542.75,147444.453125,221676.125,206421.59375,148678.984375,160392.90625,131173.359375,142006.265625,0.0
1713487686.247455,155581.65625,147462.15625,221697.9375,206451.890625,148700.4375,160412.84375,131198.21875,142033.8125,0.0
1713487686.2492497,155623.484375,147466.265625,221720.734375,206480.421875,148716.359375,160424.828125,131219.59375,142062.6875,0.0
1713487686.2518585,155609.546875,147462.78125,221713.484375,206469.875,148713.140625,160420.265625,131215.46875,142058.9375,0.0
1713487686.2543592,155562.421875,147466.453125,221687.203125,206437.140625,148704.734375,160416.15625,131206.171875,142035.15625,0.0
1713487686.2590182,155568.234375,147461.078125,221677.375,206426.953125,148697.9375,160412.125,131202.59375,142032.921875,0.0
1713487686.25903,155611.78125,147458.21875,221696.328125,206460.390625,148705.890625,160417.765625,131216.734375,142057.234375,0.0
1713487686.2590346,155606.140625,147454.734375,221693.90625,206461.109375,148704.46875,160413.203125,131209.484375,142055.453125,0.0
1713487686.261714,155563.953125,147457.859375,221672.453125,206440.546875,148696.859375,160404.984375,131191.96875,142038.1875,0.0
1713487686.2642891,155558.140625,147456.515625,221661.71875,206436.96875,148692.65625,160397.90625,131184.984375,142036.578125,0.0
1713487686.2720325,155602.65625,147446.78125,221673.890625,206450.375,148692.125,160392.8125,131186.0625,142053.125,0.0
1713487686.272061,155604.890625,147440.96875,221671.921875,206443.671875,148690.15625,160390.578125,131188.46875,142054.640625,0.0
1713487686.2720737,155560.1875,147439.359375,221647.328125,206413.984375,148681.484375,160385.046875,131178.8125,142034.875,0.0
1713487686.272085,155543.828125,147440.609375,221632.21875,206398.609375,148677.46875,160383.4375,131176.9375,142022.640625,0.0
1713487686.2742884,155607.40625,147447.046875,221663.515625,206439.65625,148694.625,160398.625,131200.71875,142049.90625,0.0
1713487686.2767813,155628.3125,147450.53125,221673.34375,206449.578125,148702.234375,160407.84375,131212.796875,142059.640625,0.0
1713487686.2814646,155586.03125,147449.453125,221647.515625,206417.390625,148691.953125,160403.375,131200.71875,142037.921875,0.0
1713487686.2814753,155553.84375,147450.359375,221621.046875,206390.03125,148681.21875,160395.59375,131185.078125,142017.984375,0.0
1713487686.28148,155607.84375,147453.75,221643.84375,206421.5,148694.890625,160406.9375,131203.3125,142044.09375,0.0
1713487686.284232,155642.796875,147462.875,221665.484375,206443.578125,148711.609375,160420.359375,131222.453125,142068.59375,0.0
1713487686.2917168,155623.140625,147466.171875,221655.90625,206428.390625,148709.375,160417.765625,131214.21875,142057.234375,0.0
1713487686.296723,155571.71875,147455.53125,221619.703125,206390.203125,148685.421875,160396.84375,131184.546875,142021.46875,0.0
1713487686.299323,155613.65625,147453.125,221634.984375,206417.03125,148688.546875,160394.25,131187.84375,142037.125,0.0
1713487686.301686,155655.859375,147462.25,221660.46875,206449.9375,148703.84375,160405.78125,131203.671875,142060.453125,0.0
1713487686.3418677,155636.640625,147466.625,221654.296875,206438.671875,148704.828125,160409.984375,131203.21875,142055.0,0.0
1713487686.3443415,155587.109375,147470.640625,221627.578125,206408.0,148697.9375,160408.734375,131192.671875,142031.75,0.0
1713487686.3468316,155612.5,147476.734375,221637.765625,206426.421875,148710.453125,160420.71875,131208.765625,142050.96875,0.0
1713487686.3499393,155649.421875,147477.984375,221653.859375,206444.203125,148721.265625,160429.03125,131220.65625,142073.5,0.0
1713487686.34995,155637.625,147477.359375,221647.328125,206435.0,148720.5625,160426.703125,131217.53125,142069.578125,0.0
1713487686.354399,155582.71875,147472.796875,221613.265625,206396.734375,148706.4375,160411.421875,131199.921875,142043.546875,0.0
1713487686.3574436,155596.671875,147471.546875,221614.515625,206404.78125,148710.09375,160410.78125,131207.78125,142053.296875,0.0
1713487686.3574553,155657.015625,147480.390625,221647.421875,206449.75,148732.359375,160425.71875,131237.109375,142090.84375,0.0
1713487686.3599555,155661.9375,147480.65625,221650.09375,206451.359375,148731.109375,160421.703125,131228.703125,142083.078125,0.0
1713487686.3599725,155612.578125,147473.59375,221618.265625,206410.328125,148709.734375,160404.265625,131201.96875,142047.125,0.0
1713487686.3617654,155605.4375,147470.375,221607.8125,206399.59375,148707.6875,160402.921875,131203.765625,142046.328125,0.0
1713487686.3649268,155655.5,147469.9375,221633.46875,206436.15625,148723.953125,160414.640625,131225.578125,142075.46875,0.0
1713487686.3649595,155650.765625,147461.890625,221631.765625,206432.40625,148722.25,160414.71875,131234.609375,142076.015625,0.0
1713487686.3668013,155607.40625,147460.90625,221607.984375,206396.28125,148714.125,160411.140625,131227.90625,142053.921875,0.0
1713487686.3692985,155596.140625,147469.03125,221596.90625,206383.234375,148712.515625,160413.46875,131219.5,142043.28125,0.0
1713487686.3717368,155646.015625,147469.484375,221618.8125,206421.671875,148721.71875,160418.03125,131224.328125,142065.8125,0.0
1713487686.3743408,155642.890625,147463.859375,221613.09375,206415.78125,148719.484375,160415.4375,131217.171875,142066.984375,0.0
1713487686.3896446,155601.765625,147466.09375,221589.578125,206385.375,148716.53125,160419.28125,131214.9375,142055.09375,0.0
1713487686.3896554,155562.0625,147469.125,221562.921875,206357.03125,148709.65625,160418.390625,131209.125,142043.375,0.0
1713487686.38966,155606.6875,147469.390625,221579.734375,206383.328125,148716.4375,160423.84375,131218.25,142063.3125,0.0
1713487686.3896637,155630.640625,147471.28125,221591.265625,206399.953125,148721.0,160427.234375,131220.65625,142071.359375,0.0
1713487686.3896675,155610.703125,147479.859375,221585.1875,206388.0625,148722.53125,160432.6875,131222.265625,142064.46875,0.0
1713487686.389671,155564.578125,147475.390625,221552.828125,206350.6875,148702.59375,160419.640625,131196.34375,142030.046875,0.0
1713487686.389675,155608.5625,147475.5625,221569.546875,206375.359375,148707.328125,160422.328125,131201.4375,142043.640625,0.0
1713487686.389679,155644.0625,147475.921875,221590.5625,206403.078125,148721.265625,160432.609375,131229.25,142073.5,0.0
1713487686.3896828,155629.390625,147477.265625,221586.359375,206397.0,148721.0,160432.25,131225.578125,142066.265625,0.0
1713487686.3896875,155571.09375,147468.5,221545.859375,206349.796875,148698.296875,160413.828125,131191.25,142022.0,0.0
1713487686.389691,155602.578125,147472.703125,221557.125,206373.046875,148709.46875,160421.875,131208.140625,142042.21875,0.0
1713487686.3896947,155642.984375,147472.4375,221576.96875,206404.421875,148720.734375,160425.71875,131222.984375,142069.390625,0.0
1713487686.3917804,155622.234375,147467.25,221565.515625,206386.984375,148714.125,160419.734375,131217.078125,142059.109375,0.0
1713487686.3965075,155565.734375,147463.671875,221530.46875,206348.09375,148699.71875,160408.640625,131200.09375,142028.625,0.0
1713487686.39655,155578.515625,147457.953125,221522.25,206339.515625,148689.53125,160397.203125,131181.765625,142022.28125,0.0
1713487686.3965695,155622.59375,147450.703125,221536.640625,206358.109375,148690.78125,160394.515625,131182.125,142039.359375,0.0
1713487686.399293,155618.578125,147447.046875,221536.46875,206357.125,148691.953125,160394.515625,131182.03125,142042.65625,0.0
1713487686.4017568,155570.65625,147449.546875,221513.390625,206327.0,148690.15625,160396.75,131182.03125,142030.6875,0.0
1713487686.406479,155572.984375,147453.921875,221511.703125,206328.609375,148697.9375,160402.921875,131192.59375,142038.453125,0.0
1713487686.4065115,155628.671875,147456.34375,221538.34375,206364.015625,148716.890625,160418.5625,131222.984375,142072.703125,0.0
1713487686.4065294,155629.21875,147454.640625,221539.140625,206364.1875,148719.84375,160423.84375,131230.140625,142071.1875,0.0
1713487686.409378,155578.703125,147453.84375,221512.0625,206332.0,148711.96875,160421.703125,131219.59375,142049.28125,0.0
1713487686.4118257,155564.84375,147461.34375,221500.96875,206326.375,148714.921875,160427.234375,131224.328125,142049.1875,0.0
1713487686.4181218,155618.75,147461.53125,221524.390625,206357.390625,148724.3125,160432.875,131236.671875,142074.21875,0.0
1713487686.4205947,155639.9375,147467.78125,221539.234375,206374.109375,148734.5,160438.234375,131245.25,142087.359375,0.0
1713487686.4231544,155596.578125,147467.78125,221517.328125,206347.46875,148726.546875,160431.4375,131233.890625,142067.15625,0.0
1713487686.4254944,155554.921875,147466.984375,221488.28125,206312.953125,148712.328125,160421.703125,131214.046875,142038.28125,0.0
1713487686.436833,155614.90625,147476.546875,221517.875,206353.8125,148729.140625,160435.46875,131231.75,142066.359375,0.0
1713487686.4393563,155645.84375,147484.234375,221536.28125,206377.78125,148745.40625,160450.484375,131251.59375,142093.265625,0.0
1713487686.4480765,155626.171875,147493.265625,221531.375,206366.609375,148758.109375,160463.984375,131276.546875,142109.625,0.0
1713487686.45117,155590.859375,147501.5,221512.140625,206349.171875,148758.640625,160469.34375,131277.4375,142099.796875,0.0
1713487686.4511805,155630.28125,147501.40625,221524.390625,206365.890625,148757.125,160468.28125,131264.734375,142098.890625,0.0
1713487686.4675522,155659.796875,147495.40625,221534.5,206378.21875,148750.515625,160458.53125,131244.984375,142096.03125,0.0
1713487686.4675632,155639.5,147491.21875,221522.609375,206360.703125,148739.15625,160446.28125,131222.09375,142079.3125,0.0
1713487686.4675677,155580.75,147479.59375,221480.859375,206315.546875,148711.4375,160419.8125,131187.3125,142042.21875,0.0
1713487686.4675715,155615.09375,147485.3125,221495.609375,206339.0625,148720.640625,160428.578125,131204.828125,142062.859375,0.0
1713487686.4675753,155655.59375,147485.84375,221514.203125,206360.53125,148728.328125,160436.359375,131219.140625,142082.71875,0.0
1713487686.467579,155641.734375,147482.625,221504.640625,206346.3125,148722.078125,160431.890625,131212.703125,142071.8125,0.0
1713487686.4675827,155583.703125,147478.34375,221469.046875,206302.765625,148706.96875,160422.6875,131199.203125,142042.21875,0.0
1713487686.4675865,155598.546875,147482.09375,221471.828125,206309.828125,148711.34375,160427.953125,131206.4375,142046.6875,0.0
1713487686.4692993,155646.640625,147481.375,221493.8125,206340.046875,148722.609375,160438.0625,131223.515625,142069.578125,0.0
1713487686.4755368,155645.84375,147480.296875,221494.984375,206341.5625,148725.5625,160440.5625,131227.1875,142071.984375,0.0
1713487686.4786253,155594.875,147478.25,221465.65625,206310.015625,148715.640625,160432.25,131213.0625,142049.09375,0.0
1713487686.4786515,155595.5,147482.453125,221462.53125,206305.09375,148721.90625,160436.0,131219.234375,142055.0,0.0
1713487686.48112,155652.734375,147486.734375,221493.109375,206346.671875,148741.84375,160449.765625,131239.53125,142090.140625,0.0
1713487686.4811478,155657.015625,147489.25,221499.453125,206354.796875,148750.515625,160456.75,131246.140625,142097.734375,0.0
1713487686.4830315,155615.0,147497.296875,221482.90625,206335.125,148754.078125,160460.59375,131249.984375,142093.796875,0.0
1713487686.4855368,155588.984375,147495.234375,221461.0,206315.46875,148744.703125,160453.703125,131242.65625,142085.578125,0.0
1713487686.5002432,155637.34375,147491.84375,221474.953125,206340.140625,148745.140625,160454.859375,131243.734375,142099.25,0.0
