timestamps,Fz,C3,Cz,C4,Pz,PO7,Oz,PO8,stim
1713488667.8388972,157120.171875,144364.828125,234314.78125,218974.59375,146403.671875,160123.703125,133646.265625,142914.296875,0.0
1713488667.8413973,157134.46875,144363.484375,234311.03125,218982.546875,146403.21875,160124.0625,133652.796875,142927.4375,0.0
1713488667.843865,157159.5,144368.671875,234323.546875,219004.09375,146412.96875,160132.90625,133667.734375,142950.234375,0.0
1713488667.8463917,157151.28125,144371.890625,234321.21875,218995.078125,146415.5625,160136.84375,133672.5625,142951.75,0.0
1713488667.8489108,157134.46875,144376.453125,234312.0,218977.09375,146413.046875,160132.28125,133657.984375,142936.640625,0.0
1713488667.8513627,157141.890625,144377.53125,234309.234375,218982.109375,146411.53125,160125.21875,133649.40625,142937.359375,0.0
1713488667.8538823,157169.25,144383.6875,234322.375,219006.515625,146423.421875,160134.609375,133664.15625,142957.46875,0.0
1713488667.8610637,157169.34375,144383.328125,234318.625,219002.140625,146424.40625,160138.984375,133664.421875,142953.09375,0.0
1713488667.8610754,157142.96875,144376.359375,234298.5,218972.265625,146414.296875,160131.578125,133653.875,142930.734375,0.0
1713488667.86108,157142.15625,144373.40625,234288.9375,218966.734375,146412.0625,160127.09375,133654.671875,142931.28125,0.0
1713488667.8669467,157167.453125,144376.546875,234297.4375,218985.328125,146421.453125,160135.859375,133672.109375,142950.5,0.0
1713488667.8669567,157173.1875,144380.65625,234300.921875,218988.1875,146424.59375,160140.421875,133669.78125,142943.171875,0.0
1713488667.869532,157151.8125,144384.765625,234291.890625,218968.0625,146421.90625,160138.453125,133659.234375,142921.265625,0.0
1713488667.869609,157155.390625,144393.96875,234289.203125,218966.46875,146425.296875,160142.296875,133665.671875,142922.96875,0.0
1713488667.8713543,157184.09375,144399.25,234297.609375,218986.578125,146433.53125,160149.71875,133681.40625,142944.59375,0.0
1713488667.8763623,157192.140625,144394.15625,234293.328125,218985.765625,146430.125,160146.953125,133676.3125,142944.0625,0.0
1713488667.8788593,157168.625,144389.5,234274.28125,218956.53125,146418.421875,160138.640625,133655.03125,142920.1875,0.0
1713488667.8813348,157150.03125,144383.609375,234255.59375,218936.78125,146409.5625,160132.015625,133647.4375,142909.375,0.0
1713488667.88378,157162.8125,144379.21875,234254.34375,218949.828125,146412.6875,160134.875,133660.125,142927.515625,0.0
1713488667.8862765,157163.890625,144369.921875,234248.796875,218952.15625,146406.703125,160129.609375,133655.03125,142928.59375,0.0
1713488667.888765,157134.65625,144363.21875,234232.875,218931.859375,146395.0,160117.265625,133636.265625,142915.265625,0.0
1713488667.8919415,157118.375,144369.203125,234227.78125,218924.34375,146400.796875,160119.328125,133648.5,142927.875,0.0
1713488667.8919528,157141.265625,144377.96875,234238.0625,218948.484375,146412.34375,160128.265625,133662.984375,142950.046875,0.0
1713488667.8960776,157150.46875,144374.03125,234239.234375,218953.234375,146407.6875,160125.40625,133651.90625,142942.625,0.0
1713488667.8960876,157134.015625,144373.234375,234232.796875,218939.109375,146406.609375,160124.6875,133648.953125,142935.921875,0.0
1713488667.896093,157117.03125,144376.984375,234223.21875,218922.296875,146406.34375,160124.59375,133646.625,142926.8125,0.0
1713488667.898824,157133.21875,144386.375,234227.875,218929.796875,146412.515625,160133.71875,133651.015625,142927.875,0.0
1713488667.9013093,157155.296875,144396.296875,234242.71875,218951.53125,146427.09375,160149.359375,133667.109375,142942.1875,0.0
1713488667.903802,157148.6875,144400.859375,234242.09375,218945.265625,146430.671875,160156.15625,133672.296875,142939.328125,0.0
1713488667.9068935,157125.53125,144403.0,234230.734375,218924.53125,146429.5,160158.390625,133677.125,142930.5625,0.0
1713488667.9069085,157124.359375,144398.890625,234219.375,218919.796875,146423.15625,160152.84375,133673.359375,142927.96875,0.0
1713488667.9088204,157139.65625,144390.84375,234218.484375,218929.265625,146419.3125,160147.03125,133669.25,142933.515625,0.0
1713488667.9118156,157137.515625,144386.734375,234214.546875,218928.109375,146419.40625,160144.09375,133669.515625,142934.578125,0.0
1713488667.9118211,157124.546875,144395.21875,234210.4375,218917.46875,146426.203125,160149.8125,133674.53125,142931.28125,0.0
1713488667.9175436,157116.953125,144390.046875,234197.921875,218910.21875,146420.390625,160140.25,133664.59375,142925.828125,0.0
1713488667.920614,157141.796875,144393.703125,234208.390625,218929.890625,146427.984375,160141.671875,133666.921875,142938.421875,0.0
1713488667.9206295,157166.125,144405.515625,234221.609375,218942.953125,146440.859375,160153.03125,133674.875,142952.90625,0.0
1713488667.9225433,157166.65625,144412.484375,234217.765625,218930.25,146446.046875,160158.65625,133677.65625,142953.0,0.0
1713488667.9255977,157165.21875,144408.375,234203.921875,218918.890625,146437.453125,160151.6875,133670.234375,142940.84375,0.0
1713488667.9256036,157184.09375,144400.859375,234199.265625,218925.15625,146430.3125,160145.609375,133664.421875,142939.953125,0.0
1713488667.9274569,157188.296875,144393.34375,234192.734375,218922.734375,146424.046875,160140.953125,133661.203125,142941.015625,0.0
1713488667.9299483,157162.1875,144387.71875,234174.59375,218897.890625,146413.234375,160133.09375,133651.28125,142927.796875,0.0
1713488667.9330893,157145.109375,144379.046875,234150.71875,218875.0,146398.21875,160120.390625,133635.625,142911.34375,0.0
1713488667.9330976,157169.15625,144372.875,234146.15625,218886.703125,146396.6875,160118.15625,133640.453125,142923.9375,0.0
1713488667.9424727,157194.28125,144376.09375,234156.796875,218906.640625,146405.625,160126.390625,133651.90625,142938.609375,0.0
1713488667.9494295,157171.578125,144373.140625,234146.25,218885.015625,146400.625,160121.109375,133642.34375,142921.265625,0.0
1713488667.949441,157155.65625,144375.46875,234136.765625,218870.171875,146398.03125,160118.34375,133638.765625,142911.078125,0.0
1713488667.9518712,157166.65625,144375.375,234136.40625,218880.265625,146397.859375,160115.5625,133638.3125,142918.671875,0.0
1713488667.9518816,157181.3125,144379.671875,234145.703125,218897.4375,146410.375,160127.015625,133655.75,142942.453125,0.0
1713488667.960049,157170.046875,144384.40625,234142.484375,218888.5,146417.515625,160135.953125,133662.28125,142943.796875,0.0
1713488667.9707727,157148.953125,144385.484375,234129.078125,218867.484375,146412.875,160133.625,133652.4375,142926.71875,0.0
1713488667.970803,157158.515625,144388.25,234127.203125,218876.15625,146417.875,160137.921875,133661.921875,142937.984375,0.0
1713488667.9731483,157187.40625,144398.359375,234142.484375,218898.59375,146431.375,160150.96875,133679.265625,142959.703125,0.0
1713488667.9731724,157187.578125,144403.90625,234143.828125,218895.03125,146432.453125,160153.46875,133676.3125,142950.671875,0.0
1713488667.980148,157170.046875,144406.765625,234132.921875,218875.265625,146426.375,160146.328125,133662.09375,142930.921875,0.0
1713488667.9844568,157175.328125,144405.953125,234127.65625,218876.875,146424.140625,160142.296875,133662.90625,142932.96875,0.0
1713488667.9844675,157196.78125,144404.171875,234133.015625,218891.53125,146427.625,160144.171875,133671.484375,142944.15625,0.0
1713488667.9937863,157196.15625,144404.25,234130.25,218887.78125,146429.140625,160144.53125,133672.015625,142943.171875,0.0
1713488667.9968045,157166.828125,144396.203125,234107.625,218854.515625,146414.484375,160130.9375,133652.796875,142914.015625,0.0
1713488667.9968257,157158.78125,144388.515625,234092.609375,218844.6875,146402.5,160116.546875,133636.890625,142901.5,0.0
1713488668.0025208,157176.84375,144387.1875,234096.453125,218863.546875,146405.359375,160118.15625,133639.296875,142920.28125,0.0
1713488668.0050642,157173.0,144380.921875,234089.921875,218861.234375,146402.0625,160118.34375,133637.875,142922.6875,0.0
1713488668.0125437,157154.3125,144385.03125,234080.71875,218843.078125,146403.484375,160121.734375,133639.65625,142919.03125,0.0
1713488668.016902,157149.578125,144387.8125,234072.9375,218835.296875,146404.828125,160122.984375,133643.140625,142924.390625,0.0
1713488668.0169127,157175.953125,144392.640625,234082.765625,218852.375,146412.96875,160132.46875,133655.484375,142941.640625,0.0
1713488668.0212307,157182.921875,144387.625,234078.921875,218849.25,146409.125,160132.203125,133656.015625,142939.5,0.0
1713488668.028808,157165.765625,144388.609375,234068.90625,218832.265625,146407.421875,160130.859375,133655.21875,142930.203125,0.0
1713488668.0394468,157153.421875,144389.6875,234058.265625,218821.0,146404.734375,160128.4375,133652.078125,142922.421875,0.0
1713488668.03946,157163.078125,144384.234375,234054.421875,218830.5625,146401.703125,160124.5,133652.4375,142927.4375,0.0
1713488668.0649583,157173.1875,144380.296875,234057.90625,218841.375,146402.6875,160125.578125,133649.40625,142929.578125,0.0
1713488668.0649688,157162.984375,144390.125,234060.421875,218837.453125,146414.75,160137.203125,133660.578125,142933.0625,0.0
1713488668.0649736,157144.75,144393.703125,234048.078125,218816.25,146415.109375,160137.828125,133659.5,142924.21875,0.0
1713488668.091346,157147.171875,144385.578125,234036.71875,218813.671875,146406.96875,160127.640625,133647.796875,142918.3125,0.0
1713488668.1163592,157159.421875,144380.46875,234038.0625,218823.328125,146409.125,160124.953125,133652.078125,142926.984375,0.0
1713488668.1414015,157152.796875,144384.9375,234036.90625,218817.78125,146413.953125,160127.546875,133655.484375,142926.265625,0.0
1713488668.1675432,157135.28125,144389.234375,234028.3125,218801.328125,146412.6875,160124.328125,133642.0625,142910.171875,0.0
1713488668.170038,157150.109375,144394.875,234031.53125,218813.125,146419.84375,160128.4375,133646.1875,142922.15625,0.0
1713488668.172595,157184.265625,144408.375,234051.296875,218842.1875,146441.390625,160148.828125,133671.125,142951.75,0.0
1713488668.1750395,157186.328125,144413.46875,234051.65625,218839.234375,146446.21875,160156.0625,133675.15625,142951.578125,0.0
1713488668.1775553,157160.3125,144411.5,234033.5,218811.96875,146439.34375,160155.171875,133671.84375,142933.59375,0.0
1713488668.1800413,157161.828125,144407.03125,234022.78125,218806.421875,146433.078125,160152.84375,133669.15625,142932.890625,0.0
1713488668.1825607,157181.859375,144396.828125,234019.46875,218815.1875,146425.84375,160148.828125,133665.765625,142939.859375,0.0
1713488668.185044,157182.84375,144389.59375,234012.578125,218810.71875,146420.296875,160144.984375,133661.03125,142938.34375,0.0
1713488668.1875353,157161.296875,144392.453125,234002.296875,218794.4375,146421.1875,160147.84375,133666.484375,142935.65625,0.0
1713488668.1900692,157147.25,144387.1875,233988.4375,218786.03125,146411.796875,160138.453125,133658.609375,142934.578125,0.0
1713488668.1925712,157165.40625,144385.65625,233991.578125,218800.25,146411.625,160134.609375,133653.6875,142944.328125,0.0
1713488668.1962888,157166.203125,144387.265625,233994.078125,218805.796875,146414.84375,160136.125,133656.546875,142948.890625,0.0
1713488668.1962996,157140.734375,144389.234375,233984.953125,218789.078125,146414.484375,160138.09375,133662.1875,142940.578125,0.0
1713488668.196304,157121.859375,144381.453125,233966.71875,218763.328125,146404.734375,160129.875,133653.515625,142928.140625,0.0
1713488668.1995058,157130.09375,144372.34375,233961.171875,218767.984375,146399.015625,160122.890625,133641.4375,142924.125,0.0
1713488668.1995163,157136.703125,144371.796875,233964.296875,218777.8125,146404.46875,160126.75,133649.484375,142931.640625,0.0
1713488668.2025568,157135.28125,144387.984375,233969.484375,218771.640625,146419.046875,160140.25,133667.109375,142936.015625,0.0
1713488668.202567,157142.25,144402.203125,233971.015625,218768.953125,146431.375,160148.203125,133683.90625,142947.1875,0.0
1713488668.2025723,157164.78125,144397.546875,233969.21875,218779.15625,146427.53125,160139.34375,133676.84375,142949.78125,0.0
1713488668.2051563,157176.046875,144388.515625,233966.890625,218782.546875,146422.34375,160131.578125,133666.296875,142945.046875,0.0
1713488668.2076344,157154.9375,144384.046875,233955.1875,218766.453125,146419.40625,160126.203125,133662.453125,142939.40625,0.0
1713488668.2101424,157130.625,144386.109375,233942.21875,218746.78125,146418.859375,160126.5625,133665.140625,142935.03125,0.0
1713488668.2126064,157137.859375,144386.109375,233939.71875,218750.28125,146412.78125,160123.875,133648.78125,142926.53125,0.0
1713488668.2150068,157165.5,144387.8125,233946.328125,218765.109375,146414.578125,160128.625,133644.578125,142928.421875,0.0
1713488668.2200487,157176.484375,144397.28125,233948.484375,218764.84375,146422.34375,160142.125,133655.03125,142927.609375,0.0
1713488668.22254,157159.765625,144400.40625,233934.984375,218744.28125,146419.84375,160145.875,133656.640625,142913.125,0.0
1713488668.2250488,157154.59375,144391.46875,233920.9375,218738.828125,146410.28125,160137.65625,133650.296875,142913.125,0.0
1713488668.2325587,157167.640625,144392.1875,233928.625,218755.90625,146416.0,160145.609375,133659.765625,142932.171875,0.0
1713488668.2350829,157160.578125,144395.578125,233927.109375,218752.515625,146420.5625,160152.3125,133668.984375,142942.8125,0.0
1713488668.2400503,157142.6875,144398.796875,233917.09375,218734.265625,146423.609375,160154.28125,133670.5,142943.171875,0.0
1713488668.2437007,157146.890625,144401.125,233912.171875,218733.640625,146429.0625,160158.484375,133680.96875,142955.859375,0.0
1713488668.2437117,157174.34375,144406.40625,233924.875,218756.09375,146440.765625,160166.796875,133695.09375,142976.78125,0.0
1713488668.2437162,157178.640625,144404.703125,233926.03125,218763.0625,146441.578125,160163.21875,133690.53125,142977.5,0.0
1713488668.2511833,157150.921875,144399.609375,233909.765625,218734.0,146434.421875,160155.171875,133680.6875,142962.03125,0.0
1713488668.251224,157145.640625,144398.359375,233900.109375,218724.4375,146429.765625,160148.46875,133676.21875,142954.25,0.0
1713488668.251244,157161.03125,144393.609375,233899.84375,218736.78125,146425.21875,160141.859375,133671.03125,142952.640625,0.0
1713488668.253825,157170.59375,144397.015625,233906.375,218749.203125,146431.65625,160145.703125,133678.015625,142962.65625,0.0
1713488668.2562678,157158.78125,144402.640625,233903.859375,218737.40625,146435.765625,160147.65625,133679.625,142955.953125,0.0
1713488668.2599127,157149.3125,144398.796875,233891.265625,218721.21875,146426.640625,160136.75,133666.75,142940.671875,0.0
1713488668.2599256,157159.953125,144392.359375,233886.78125,218728.1875,146419.21875,160128.703125,133656.203125,142935.921875,0.0
1713488668.25993,157169.703125,144398.09375,233895.015625,218740.265625,146428.078125,160139.34375,133669.34375,142943.53125,0.0
1713488668.2624888,157158.96875,144410.34375,233897.15625,218734.890625,146439.25,160152.765625,133678.734375,142943.171875,0.0
1713488668.2655869,157138.3125,144405.0625,233878.921875,218715.859375,146429.765625,160146.046875,133663.796875,142923.140625,0.0
1713488668.2656088,157143.859375,144394.328125,233867.5625,218715.578125,146418.859375,160137.5625,133652.078125,142915.8125,0.0
1713488668.2699764,157159.328125,144396.75,233875.25,218730.15625,146427.984375,160147.390625,133663.265625,142932.53125,0.0
1713488668.2730803,157141.53125,144395.9375,233866.578125,218716.390625,146427.09375,160150.078125,133662.0,142929.3125,0.0
1713488668.27309,157121.140625,144393.96875,233848.703125,218692.609375,146423.421875,160152.3125,133664.875,142925.46875,0.0
1713488668.2749977,157133.484375,144395.9375,233848.703125,218702.53125,146429.59375,160158.03125,133681.140625,142950.953125,0.0
1713488668.2774925,157152.265625,144397.546875,233857.46875,218717.734375,146435.046875,160163.75,133684.71875,142966.953125,0.0
1713488668.27999,157136.890625,144388.078125,233844.765625,218702.078125,146423.953125,160152.140625,133665.765625,142951.03125,0.0
1713488668.2824962,157113.015625,144382.703125,233827.6875,218678.484375,146419.046875,160145.703125,133666.03125,142946.203125,0.0
1713488668.2849913,157128.65625,144387.890625,233828.21875,218685.984375,146425.921875,160151.78125,133680.6875,142964.53125,0.0
1713488668.2874396,157151.640625,144383.875,233830.640625,218700.5625,146423.25,160147.21875,133676.9375,142968.375,0.0
1713488668.2905822,157147.875,144378.59375,233823.21875,218691.359375,146416.359375,160139.34375,133667.28125,142955.78125,0.0
1713488668.2905939,157129.1875,144380.390625,233809.984375,218670.703125,146414.03125,160137.109375,133664.15625,142944.78125,0.0
1713488668.2924573,157136.171875,144386.546875,233806.140625,218673.75,146418.15625,160140.0625,133675.515625,142954.609375,0.0
1713488668.2955775,157161.46875,144387.265625,233811.859375,218688.140625,146422.0,160144.359375,133677.203125,142954.875,0.0
1713488668.2955835,157168.359375,144381.8125,233808.015625,218683.9375,146420.46875,160142.03125,133669.96875,142946.75,0.0
1713488668.2974885,157156.109375,144383.421875,233797.734375,218662.828125,146420.109375,160142.828125,133665.046875,142932.078125,0.0
1713488668.2999618,157160.84375,144386.375,233790.671875,218657.109375,146419.671875,160142.296875,133662.8125,142925.734375,0.0
1713488668.3043766,157194.546875,144400.59375,233807.578125,218684.46875,146438.4375,160159.640625,133684.359375,142947.015625,0.0
1713488668.3043845,157202.59375,144406.84375,233815.171875,218692.34375,146449.359375,160169.03125,133693.65625,142955.6875,0.0
1713488668.3138185,157179.53125,144409.796875,233807.65625,218676.421875,146448.71875,160170.46875,133687.40625,142942.71875,0.0
1713488668.3180645,157161.5625,144402.640625,233787.8125,218656.3125,146433.96875,160159.203125,133666.5625,142918.578125,0.0
1713488668.3180861,157177.109375,144393.4375,233781.46875,218660.78125,146427.0,160152.765625,133662.90625,142926.453125,0.0
1713488668.3199656,157187.046875,144389.859375,233782.359375,218667.65625,146428.875,160155.984375,133668.359375,142942.453125,0.0
1713488668.3313076,157172.921875,144391.828125,233776.453125,218656.21875,146432.453125,160162.0625,133675.59375,142947.546875,0.0
1713488668.3387313,157155.65625,144389.6875,233762.78125,218642.0,146428.609375,160158.84375,133676.484375,142949.25,0.0
1713488668.3387415,157168.625,144389.0625,233763.3125,218656.75,146431.109375,160160.625,133683.015625,142966.59375,0.0
1713488668.3387475,157173.890625,144382.078125,233760.984375,218659.890625,146427.53125,160158.21875,133682.296875,142973.125,0.0
1713488668.341314,157147.25,144375.203125,233744.984375,218639.046875,146415.46875,160146.046875,133667.640625,142956.125,0.0
1713488668.343767,157135.71875,144383.421875,233739.4375,218623.40625,146416.359375,160146.5,133666.75,142947.109375,0.0
1713488668.3475661,157143.046875,144379.046875,233733.90625,218624.390625,146415.640625,160145.78125,133670.328125,142951.125,0.0
1713488668.3625548,157159.0625,144375.375,233738.46875,218637.890625,146419.40625,160147.21875,133677.296875,142962.5625,0.0
1713488668.3655944,157159.234375,144384.59375,233744.984375,218638.421875,146430.671875,160156.875,133691.25,142971.875,0.0
1713488668.3656135,157138.046875,144387.890625,233735.875,218620.1875,146431.375,160156.96875,133690.34375,142962.03125,0.0
1713488668.3675473,157135.359375,144379.140625,233723.53125,218614.828125,146421.015625,160145.875,133674.796875,142951.296875,0.0
1713488668.3700476,157152.984375,144371.71875,233723.890625,218624.296875,146417.703125,160139.171875,133670.859375,142954.515625,0.0
1713488668.3819053,157166.03125,144381.453125,233731.21875,218627.703125,146423.609375,160142.484375,133672.640625,142954.25,0.0
1713488668.381916,157156.828125,144393.34375,233728.53125,218610.984375,146426.546875,160144.796875,133672.375,142943.34375,0.0
1713488668.3881676,157160.125,144398.625,233727.734375,218614.015625,146427.53125,160144.4375,133668.4375,142938.34375,0.0
1713488668.388178,157182.03125,144401.390625,233736.40625,218633.234375,146432.71875,160149.546875,133671.84375,142942.625,0.0
1713488668.3905773,157183.203125,144402.203125,233737.390625,218637.265625,146436.921875,160154.8125,133674.4375,142940.578125,0.0
1713488668.390587,157157.53125,144399.515625,233722.09375,218616.078125,146433.171875,160153.46875,133669.078125,142930.5625,0.0
1713488668.401351,157141.625,144393.53125,233703.859375,218599.09375,146423.0625,160146.234375,133660.046875,142924.921875,0.0
1713488668.4068487,157160.484375,144397.1875,233711.734375,218618.75,146429.421875,160154.015625,133673.359375,142948.171875,0.0
1713488668.40686,157163.703125,144393.703125,233712.0,218621.890625,146429.953125,160154.734375,133680.515625,142957.203125,0.0
1713488668.4087584,157139.828125,144390.125,233697.25,218598.109375,146422.4375,160146.328125,133670.859375,142942.90625,0.0
1713488668.4337533,157127.3125,144389.953125,233684.546875,218586.296875,146418.328125,160141.859375,133669.15625,142942.8125,0.0
1713488668.4843907,157146.984375,144395.9375,233692.0625,218604.90625,146426.546875,160152.140625,133680.421875,142963.828125,0.0
1713488668.484404,157158.96875,144394.59375,233695.8125,218614.203125,146426.015625,160154.28125,133669.875,142961.234375,0.0
1713488668.5112593,157145.828125,144397.90625,233690.0,218604.625,146429.6875,160159.734375,133674.25,142959.890625,0.0
1713488668.5376365,157135.453125,144403.265625,233682.140625,218593.984375,146434.78125,160163.578125,133681.59375,142960.25,0.0
1713488668.5631657,157152.984375,144404.171875,233684.546875,218604.453125,146440.59375,160165.28125,133690.625,142973.203125,0.0
1713488668.5631769,157169.515625,144400.234375,233688.296875,218613.75,146441.578125,160161.25,133690.078125,142975.71875,0.0
1713488668.588217,157154.046875,144394.25,233677.125,218596.40625,146433.53125,160150.25,133679.4375,142960.78125,0.0
1713488668.5882275,157131.15625,144389.953125,233660.3125,218573.34375,146423.6875,160138.71875,133667.28125,142944.0625,0.0
1713488668.5963104,157137.515625,144388.875,233655.140625,218577.984375,146423.421875,160137.203125,133670.5,142950.40625,0.0
1713488668.5963204,157159.234375,144392.8125,233663.453125,218592.828125,146430.578125,160143.8125,133679.359375,142960.25,0.0
1713488668.5963247,157159.421875,144393.53125,233658.890625,218585.671875,146429.953125,160143.8125,133677.65625,142956.21875,0.0
1713488668.6000495,157143.59375,144395.046875,233645.828125,218566.640625,146427.53125,160142.390625,133673.71875,142945.578125,0.0
1713488668.600068,157157.171875,144402.109375,233646.46875,218575.125,146431.296875,160147.21875,133678.09375,142949.0625,0.0
1713488668.6000767,157179.359375,144401.75,233651.203125,218588.71875,146432.984375,160151.234375,133677.390625,142953.453125,0.0
1713488668.6026351,157162.1875,144389.953125,233635.90625,218573.515625,146420.203125,160141.859375,133662.1875,142938.421875,0.0
1713488668.6051452,157134.828125,144388.15625,233621.703125,218551.609375,146416.1875,160140.0625,133660.21875,142926.453125,0.0
1713488668.6076524,157130.0,144385.921875,233613.734375,218546.609375,146412.25,160138.546875,133659.953125,142921.796875,0.0
1713488668.6101532,157141.890625,144378.59375,233611.59375,218553.9375,146406.078125,160134.15625,133647.703125,142912.859375,0.0
1713488668.61264,157148.6875,144384.59375,233618.390625,218561.71875,146418.15625,160144.984375,133663.890625,142929.21875,0.0
1713488668.615074,157135.09375,144395.046875,233617.671875,218552.953125,146428.34375,160152.3125,133675.6875,142939.328125,0.0
1713488668.620136,157133.84375,144400.234375,233613.5625,218551.171875,146431.296875,160150.609375,133679.359375,142951.125,0.0
1713488668.6226392,157155.921875,144393.53125,233612.75,218560.828125,146428.78125,160143.28125,133676.3125,142963.828125,0.0
1713488668.6251612,157163.703125,144388.078125,233609.625,218561.171875,146427.53125,160140.15625,133672.203125,142965.875,0.0
1713488668.6276348,157146.453125,144388.34375,233600.953125,218548.484375,146428.34375,160140.0625,133672.921875,142958.546875,0.0
1713488668.630083,157128.5625,144387.1875,233588.609375,218536.6875,146426.109375,160138.453125,133672.46875,142955.421875,0.0
1713488668.632586,157141.171875,144387.265625,233590.84375,218545.796875,146425.75,160139.53125,133675.421875,142963.640625,0.0
1713488668.6350937,157159.421875,144391.734375,233599.96875,218552.15625,146431.734375,160145.96875,133685.078125,142975.265625,0.0
1713488668.637571,157154.765625,144403.1875,233601.578125,218547.40625,146442.015625,160156.34375,133696.34375,142976.15625,0.0
1713488668.6400592,157134.109375,144400.859375,233584.859375,218526.046875,146433.703125,160149.984375,133682.84375,142955.0625,0.0
1713488668.6450415,157136.609375,144392.015625,233575.828125,218526.125,146424.765625,160138.453125,133666.65625,142944.59375,0.0
1713488668.6525288,157147.796875,144389.859375,233579.671875,218537.84375,146430.671875,160141.40625,133674.96875,142954.796875,0.0
1713488668.655062,157138.3125,144392.1875,233578.25,218530.328125,146432.8125,160142.484375,133673.1875,142950.671875,0.0
1713488668.657508,157125.625,144399.34375,233573.140625,218518.53125,146432.359375,160143.90625,133669.421875,142938.609375,0.0
1713488668.6599839,157139.03125,144400.6875,233571.8125,218526.75,146430.578125,160142.828125,133667.1875,142938.25,0.0
1713488668.6625135,157156.546875,144394.515625,233570.5625,218535.15625,146427.71875,160141.140625,133669.703125,142941.5625,0.0
1713488668.6700244,157148.5,144387.0,233559.46875,218521.65625,146419.9375,160134.703125,133660.84375,142928.0625,0.0
1713488668.6725051,157136.265625,144396.203125,233554.375,218508.515625,146422.796875,160140.78125,133659.0625,142922.0625,0.0
1713488668.6749966,157151.015625,144407.46875,233559.46875,218519.421875,146431.921875,160150.796875,133668.71875,142936.46875,0.0
1713488668.6775875,157172.109375,144406.9375,233566.078125,218536.6875,146440.046875,160159.46875,133682.578125,142956.046875,0.0
1713488668.6884,157162.28125,144398.890625,233557.328125,218530.25,146437.734375,160157.953125,133682.75,142955.234375,0.0
1713488668.6884167,157138.671875,144398.4375,233543.28125,218511.015625,146432.8125,160154.375,133675.859375,142947.546875,0.0
1713488668.6884253,157134.828125,144395.046875,233534.25,218511.015625,146426.28125,160145.703125,133673.0,142954.4375,0.0
1713488668.6884413,157147.609375,144388.15625,233532.828125,218514.78125,146424.234375,160141.859375,133677.828125,142968.296875,0.0
1713488668.6884527,157150.390625,144380.203125,233525.40625,218505.203125,146416.546875,160131.578125,133662.640625,142958.453125,0.0
1713488668.6884644,157114.359375,144364.65625,233499.65625,218471.234375,146400.890625,160113.234375,133646.984375,142937.796875,0.0
1713488668.688476,157099.515625,144364.296875,233489.640625,218463.1875,146398.296875,160109.3125,133643.859375,142935.125,0.0
1713488668.6900685,157137.515625,144390.40625,233518.703125,218503.328125,146426.375,160135.859375,133671.3125,142968.015625,0.0
1713488668.6925356,157169.421875,144415.875,233546.421875,218532.65625,146454.359375,160160.890625,133699.296875,142996.28125,0.0
1713488668.6951177,157152.265625,144413.375,233533.453125,218510.125,146447.03125,160153.03125,133687.75,142975.4375,0.0
1713488668.7058086,157137.859375,144406.9375,233514.765625,218490.015625,146437.640625,160143.8125,133677.46875,142958.015625,0.0
1713488668.705819,157156.90625,144407.75,233518.609375,218503.78125,146444.078125,160148.921875,133685.609375,142966.859375,0.0
1713488668.7058234,157171.03125,144408.1875,233527.453125,218515.9375,146450.6875,160154.28125,133692.3125,142974.375,0.0
1713488668.705829,157153.328125,144405.515625,233517.890625,218497.796875,146445.859375,160151.6875,133687.84375,142959.703125,0.0
1713488668.7058337,157136.890625,144405.15625,233503.046875,218479.734375,146440.140625,160147.65625,133680.78125,142947.8125,0.0
1713488668.7058384,157149.125,144405.6875,233502.0625,218491.265625,146442.109375,160148.296875,133679.796875,142957.828125,0.0
1713488668.7058432,157169.609375,144408.015625,233508.328125,218506.109375,146447.203125,160152.765625,133687.484375,142970.53125,0.0
1713488668.708726,157170.59375,144409.625,233503.765625,218497.34375,146445.0625,160153.125,133688.109375,142963.90625,0.0
1713488668.7087336,157162.8125,144409.171875,233489.28125,218475.96875,146434.953125,160148.640625,133676.046875,142941.828125,0.0
1713488668.7087376,157168.09375,144403.09375,233478.640625,218472.75,146424.859375,160141.765625,133664.78125,142933.515625,0.0
1713488668.7113245,157185.4375,144405.78125,233487.578125,218489.828125,146432.453125,160151.421875,133677.125,142948.4375,0.0
1713488668.7137785,157184.453125,144412.921875,233492.859375,218494.75,146441.9375,160161.703125,133687.046875,142959.96875,0.0
1713488668.7163231,157154.5,144403.453125,233469.875,218460.0625,146431.203125,160150.96875,133674.96875,142947.28125,0.0
1713488668.719917,157156.640625,144398.0,233457.8125,218454.0625,146428.4375,160145.15625,133677.125,142955.859375,0.0
1713488668.7199247,157178.1875,144396.484375,233463.890625,218473.65625,146432.8125,160146.953125,133682.921875,142971.15625,0.0
1713488668.7199287,157174.171875,144392.28125,233460.578125,218471.234375,146431.109375,160144.53125,133682.21875,142970.078125,0.0
1713488668.7224824,157152.53125,144393.890625,233449.59375,218451.125,146429.953125,160142.125,133681.140625,142962.390625,0.0
1713488668.7256005,157152.078125,144389.859375,233435.734375,218442.890625,146419.671875,160127.90625,133663.53125,142950.671875,0.0
1713488668.7256093,157167.453125,144380.109375,233430.984375,218445.046875,146411.265625,160114.84375,133653.25,142949.515625,0.0
1713488668.7275133,157182.21875,144391.03125,233443.0625,218453.984375,146424.9375,160126.921875,133671.21875,142967.21875,0.0
1713488668.7325175,157165.84375,144396.390625,233435.734375,218437.796875,146427.453125,160129.78125,133671.125,142956.671875,0.0
1713488668.7361183,157169.515625,144409.265625,233436.796875,218439.671875,146434.875,160138.8125,133672.296875,142952.734375,0.0
1713488668.736127,157190.703125,144416.59375,233447.078125,218460.234375,146444.25,160149.453125,133680.6875,142965.4375,0.0
1713488668.7361305,157185.609375,144408.90625,233440.640625,218456.65625,146441.578125,160150.96875,133679.0,142962.125,0.0
1713488668.7387638,157170.59375,144413.109375,233436.359375,218445.21875,146445.421875,160159.015625,133685.078125,142953.359375,0.0
1713488668.7418585,157156.734375,144412.03125,233424.203125,218431.890625,146438.890625,160154.640625,133680.34375,142941.734375,0.0
1713488668.7418792,157169.34375,144403.453125,233414.453125,218431.8125,146424.3125,160139.890625,133657.8125,142929.21875,0.0
1713488668.7437775,157184.09375,144400.765625,233414.0,218435.5625,146418.859375,160135.5,133652.359375,142926.0,0.0
1713488668.746265,157175.328125,144406.40625,233413.109375,218430.46875,146420.921875,160138.015625,133657.0,142926.53125,0.0
1713488668.7512813,157161.5625,144415.25,233409.09375,218421.171875,146428.34375,160146.234375,133668.0,142935.84375,0.0
1713488668.7544875,157177.390625,144423.296875,233414.984375,218436.640625,146442.203125,160162.859375,133691.953125,142958.90625,0.0
1713488668.754525,157180.78125,144409.625,233407.125,218439.671875,146433.96875,160155.078125,133683.640625,142955.328125,0.0
1713488668.7563348,157162.453125,144396.484375,233389.0625,218417.140625,146420.828125,160143.640625,133669.078125,142936.109375,0.0
1713488668.7588189,157147.875,144396.75,233377.4375,218403.015625,146420.734375,160141.3125,133673.1875,142939.953125,0.0
1713488668.761906,157149.484375,144390.40625,233366.96875,218401.671875,146414.9375,160131.03125,133668.4375,142950.046875,0.0
1713488668.7619164,157154.9375,144380.03125,233361.875,218405.15625,146409.203125,160125.578125,133662.90625,142950.234375,0.0
1713488668.763814,157149.40625,144378.234375,233357.671875,218399.796875,146410.109375,160125.484375,133662.1875,142949.15625,0.0
1713488668.7668931,157138.40625,144387.53125,233355.171875,218387.546875,146417.25,160133.8125,133671.125,142948.0,0.0
1713488668.766904,157145.640625,144393.96875,233355.4375,218393.0,146421.640625,160138.015625,133676.40625,142952.203125,0.0
1713488668.772558,157165.765625,144393.96875,233362.234375,218407.9375,146421.546875,160136.484375,133669.609375,142954.96875,0.0
1713488668.7794623,157161.203125,144392.640625,233361.25,218404.890625,146420.109375,160133.984375,133667.46875,142951.84375,0.0
1713488668.7795036,157137.859375,144395.9375,233352.578125,218386.296875,146421.71875,160133.1875,133667.109375,142942.90625,0.0
1713488668.805718,157133.390625,144394.875,233346.953125,218384.25,146423.0625,160129.328125,133667.28125,142942.453125,0.0
1713488668.8057284,157154.40625,144394.59375,233353.203125,218402.65625,146431.296875,160136.21875,133676.21875,142955.78125,0.0
1713488668.8301475,157161.46875,144395.046875,233356.421875,218407.484375,146435.046875,160140.6875,133678.546875,142958.015625,0.0
1713488668.8556516,157130.71875,144389.140625,233337.109375,218374.671875,146424.765625,160131.578125,133663.53125,142937.359375,0.0
1713488668.8556619,157117.296875,144385.125,233321.734375,218357.6875,146417.875,160123.078125,133661.109375,142931.015625,0.0
1713488668.8811915,157145.640625,144392.1875,233333.53125,218379.328125,146427.265625,160133.265625,133676.3125,142946.921875,0.0
1713488668.8812015,157166.203125,144399.78125,233345.078125,218394.796875,146435.5,160144.625,133679.625,142953.8125,0.0
1713488668.8812058,157150.109375,144402.296875,233338.0,218382.90625,146434.15625,160145.609375,133672.203125,142940.125,0.0
1713488668.8993895,157137.15625,144408.734375,233332.203125,218377.984375,146437.640625,160150.34375,133678.015625,142940.3125,0.0
1713488668.899407,157148.78125,144411.046875,233335.234375,218397.203125,146442.640625,160155.53125,133691.328125,142960.25,0.0
1713488668.899412,157153.421875,144403.359375,233330.140625,218394.25,146437.28125,160149.453125,133687.75,142959.4375,0.0
1713488668.8994162,157137.859375,144401.390625,233317.4375,218370.109375,146431.296875,160144.71875,133679.796875,142949.78125,0.0
1713488668.901876,157119.984375,144400.859375,233301.53125,218348.21875,146422.34375,160138.1875,133665.046875,142936.109375,0.0
1713488668.9018867,157131.703125,144400.046875,233300.09375,218356.890625,146424.5,160141.40625,133674.4375,142952.015625,0.0
1713488668.903816,157142.78125,144391.46875,233300.015625,218367.703125,146427.359375,160142.75,133679.625,142965.25,0.0
1713488668.90632,157127.671875,144385.578125,233289.90625,218354.65625,146422.984375,160139.890625,133669.703125,142953.09375,0.0
1713488668.90884,157104.15625,144388.34375,233277.484375,218334.265625,146421.8125,160141.3125,133667.546875,142942.8125,0.0
1713488668.9113634,157111.21875,144393.4375,233276.859375,218341.234375,146427.984375,160148.734375,133678.546875,142954.25,0.0
1713488668.9138165,157124.015625,144387.625,233279.453125,218352.953125,146429.6875,160149.625,133683.828125,142963.015625,0.0
1713488668.9163597,157112.75,144383.0625,233272.03125,218343.296875,146426.015625,160144.09375,133677.203125,142957.65625,0.0
1713488668.918877,157097.359375,144392.359375,233266.921875,218328.546875,146429.765625,160148.46875,133678.453125,142949.78125,0.0
1713488668.9213872,157103.796875,144393.4375,233262.453125,218331.9375,146429.0625,160145.875,133678.734375,142950.671875,0.0
1713488668.923867,157124.640625,144390.578125,233267.828125,218346.6875,146430.9375,160147.125,133685.703125,142964.984375,0.0
1713488668.926397,157123.828125,144386.546875,233264.515625,218341.328125,146427.53125,160144.359375,133682.578125,142962.5625,0.0
1713488668.9288864,157103.984375,144386.109375,233253.25,218320.046875,146418.328125,160134.703125,133662.453125,142935.03125,0.0
1713488668.9313614,157102.1875,144389.328125,233249.21875,218319.421875,146417.609375,160134.078125,133663.34375,142932.625,0.0
1713488668.9337544,157113.1875,144387.984375,233252.796875,218333.015625,146421.453125,160138.984375,133671.65625,142942.546875,0.0
1713488668.936287,157106.9375,144383.15625,233249.765625,218333.90625,146422.078125,160139.796875,133671.578125,142944.953125,0.0
1713488668.938815,157072.515625,144375.109375,233230.09375,218305.203125,146411.4375,160128.796875,133650.109375,142923.234375,0.0
1713488668.9412768,157067.328125,144386.203125,233227.234375,218299.84375,146418.859375,160139.96875,133661.5625,142927.609375,0.0
1713488668.9438195,157095.3125,144399.78125,233241.71875,218326.84375,146436.5625,160160.625,133686.421875,142955.6875,0.0
1713488668.9463215,157109.171875,144400.140625,233246.984375,218336.40625,146441.3125,160166.171875,133692.3125,142964.71875,0.0
1713488668.9494743,157094.421875,144399.78125,233239.75,218321.65625,146438.71875,160164.828125,133685.796875,142954.515625,0.0
1713488668.9494853,157080.734375,144395.9375,233223.5625,218301.625,146429.328125,160159.015625,133674.53125,142938.875,0.0
1713488668.952474,157107.203125,144392.359375,233220.890625,218305.828125,146427.890625,160158.125,133677.203125,142950.671875,0.0
1713488668.9524848,157128.484375,144386.109375,233219.8125,218311.203125,146427.53125,160156.421875,133680.515625,142960.15625,0.0
1713488668.9524894,157123.65625,144385.84375,233212.5625,218298.40625,146425.296875,160153.203125,133675.78125,142950.765625,0.0
1713488668.9587464,157127.9375,144404.4375,233218.203125,218300.5625,146439.78125,160166.625,133691.59375,142959.0,0.0
1713488668.958778,157148.953125,144411.234375,233224.453125,218319.25,146447.296875,160170.90625,133701.25,142973.921875,0.0
1713488668.9587848,157163.53125,144403.0,233223.65625,218324.96875,146443.546875,160163.046875,133697.40625,142978.03125,0.0
1713488668.9612932,157162.09375,144404.53125,233223.03125,218321.65625,146445.953125,160163.578125,133700.0,142978.390625,0.0
1713488668.9644947,157145.5625,144405.15625,233213.90625,218301.8125,146442.734375,160156.609375,133689.640625,142962.65625,0.0
1713488668.9645052,157146.984375,144398.625,233205.421875,218299.3125,146436.75,160146.59375,133680.6875,142959.0,0.0
1713488668.966306,157161.375,144394.78125,233209.703125,218313.171875,146439.34375,160148.375,133689.09375,142969.625,0.0
1713488668.9713187,157154.3125,144395.21875,233208.8125,218310.65625,146438.625,160147.21875,133684.09375,142963.28125,0.0
1713488668.9744966,157128.296875,144393.34375,233191.203125,218280.265625,146427.0,160138.09375,133662.1875,142935.296875,0.0
1713488668.9745388,157127.5,144392.71875,233180.203125,218273.5625,146421.09375,160135.765625,133654.59375,142926.359375,0.0
1713488668.9763238,157160.671875,144403.1875,233195.21875,218300.46875,146434.234375,160151.421875,133670.6875,142944.15625,0.0
1713488668.9788291,157175.953125,144414.09375,233204.609375,218311.375,146445.859375,160167.875,133687.21875,142956.75,0.0
1713488668.9819107,157155.921875,144414.8125,233193.171875,218288.484375,146442.015625,160168.578125,133685.875,142944.78125,0.0
1713488668.9819372,157160.390625,144420.0,233189.6875,218285.265625,146442.203125,160170.8125,133687.484375,142943.53125,0.0
1713488668.9888258,157183.546875,144421.25,233194.515625,218300.203125,146444.25,160172.421875,133690.4375,142956.21875,0.0
1713488668.9931564,157181.140625,144413.015625,233187.09375,218296.0,146436.921875,160162.0625,133678.90625,142954.34375,0.0
1713488668.9931674,157161.921875,144415.96875,233181.015625,218282.671875,146439.0625,160161.171875,133677.921875,142952.28125,0.0
1713488669.0081341,157150.109375,144412.75,233170.546875,218273.640625,146436.390625,160155.53125,133673.8125,142950.5,0.0
1713488669.0081449,157169.609375,144411.765625,233173.59375,218290.640625,146441.75,160158.21875,133685.796875,142968.734375,0.0
1713488669.0101285,157188.46875,144413.5625,233180.921875,218307.625,146449.625,160166.0,133692.578125,142980.1875,0.0
1713488669.0145383,157176.40625,144416.78125,233171.53125,218285.359375,146452.21875,160170.375,133696.25,142976.96875,0.0
1713488669.01458,157162.8125,144414.984375,233156.6875,218263.984375,146445.328125,160162.5,133691.328125,142965.875,0.0
1713488669.0176337,157184.09375,144418.46875,233161.96875,218280.703125,146446.046875,160160.625,133692.140625,142970.703125,0.0
1713488669.029572,157199.46875,144418.5625,233166.96875,218292.78125,146446.046875,160158.390625,133692.3125,142973.921875,0.0
1713488669.0295856,157187.125,144415.34375,233157.578125,218278.296875,146440.59375,160149.90625,133679.53125,142962.03125,0.0
1713488669.0319562,157167.453125,144411.40625,233144.078125,218259.96875,146437.734375,160146.59375,133676.40625,142953.09375,0.0
1713488669.0319667,157175.15625,144409.0,233142.03125,218265.953125,146440.859375,160149.1875,133683.5625,142962.5625,0.0
1713488669.0388832,157184.09375,144404.4375,233144.171875,218274.71875,146444.25,160152.140625,133688.5625,142969.625,0.0
1713488669.0426545,157159.59375,144391.828125,233125.046875,218251.203125,146431.5625,160141.578125,133671.390625,142950.046875,0.0
1713488669.0557616,157125.34375,144382.265625,233098.671875,218213.75,146415.203125,160129.78125,133652.171875,142923.046875,0.0
1713488669.0558033,157134.296875,144388.609375,233096.875,218220.1875,146418.953125,160134.25,133657.1875,142929.671875,0.0
1713488669.05821,157158.96875,144396.203125,233107.609375,218241.375,146428.609375,160145.875,133668.09375,142944.78125,0.0
1713488669.0582204,157154.3125,144395.9375,233104.03125,218235.5625,146425.921875,160148.640625,133666.65625,142938.34375,0.0
1713488669.0626338,157138.21875,144402.015625,233098.125,218221.4375,146428.15625,160154.546875,133671.84375,142934.140625,0.0
1713488669.0663693,157132.234375,144397.734375,233087.9375,218218.578125,146425.03125,160153.65625,133675.859375,142938.703125,0.0
1713488669.0769734,157138.140625,144383.875,233080.515625,218223.125,146416.8125,160146.140625,133666.484375,142938.875,0.0
1713488669.0770035,157139.46875,144381.90625,233078.453125,218222.421875,146417.25,160146.234375,133668.984375,142943.25,0.0
1713488669.0795972,157127.40625,144388.34375,233072.640625,218205.15625,146420.734375,160149.90625,133678.734375,142945.21875,0.0
1713488669.079626,157125.0,144388.796875,233064.25,218199.625,146416.359375,160144.796875,133676.765625,142946.203125,0.0
1713488669.1125443,157145.203125,144389.234375,233068.53125,218217.140625,146418.15625,160145.25,133675.421875,142952.90625,0.0
1713488669.1155863,157156.109375,144391.921875,233073.359375,218226.078125,146423.421875,160149.359375,133679.625,142958.90625,0.0
1713488669.1156087,157135.71875,144384.046875,233055.484375,218200.953125,146413.140625,160139.078125,133665.859375,142935.65625,0.0
1713488669.120001,157122.578125,144379.21875,233039.65625,218185.046875,146406.34375,160130.5,133659.234375,142925.640625,0.0
1713488669.1225033,157138.40625,144380.296875,233044.03125,218194.875,146410.90625,160132.734375,133667.375,142938.78125,0.0
1713488669.125007,157147.4375,144382.984375,233053.421875,218203.90625,146418.15625,160137.65625,133677.65625,142953.1875,0.0
1713488669.1275055,157125.890625,144383.875,233047.875,218188.265625,146416.359375,160138.015625,133670.40625,142935.203125,0.0
1713488669.1299784,157113.90625,144392.546875,233044.125,218179.953125,146419.578125,160141.3125,133666.03125,142927.25,0.0
1713488669.1325047,157129.828125,144398.09375,233047.171875,218194.078125,146422.53125,160141.671875,133666.203125,142936.375,0.0
1713488669.13497,157148.15625,144400.59375,233052.171875,218207.9375,146428.25,160148.828125,133678.546875,142950.859375,0.0
1713488669.1375003,157140.734375,144396.65625,233040.546875,218193.8125,146422.796875,160144.265625,133671.84375,142939.40625,0.0
1713488669.140583,157133.9375,144395.5,233028.921875,218179.953125,146419.21875,160140.515625,133661.109375,142928.59375,0.0
1713488669.1405976,157151.1875,144395.765625,233027.5,218184.5,146418.953125,160138.90625,133658.34375,142930.921875,0.0
1713488669.1424694,157161.828125,144386.28125,233025.890625,218187.546875,146414.125,160134.4375,133657.0,142931.90625,0.0
1713488669.145009,157159.328125,144387.265625,233025.34375,218182.453125,146415.828125,160135.765625,133658.875,142928.140625,0.0
1713488669.17567,157145.28125,144397.375,233022.40625,218171.640625,146419.40625,160140.78125,133665.5,142925.28125,0.0
1713488669.175728,157148.78125,144404.875,233022.84375,218178.609375,146421.71875,160145.78125,133674.171875,142934.234375,0.0
1713488669.2000144,157160.75,144403.09375,233026.0625,218189.78125,146420.5625,160145.609375,133675.59375,142941.734375,0.0
1713488669.2325351,157155.921875,144402.015625,233023.5625,218187.546875,146418.59375,160142.390625,133667.46875,142942.90625,0.0
1713488669.2350037,157133.046875,144402.015625,233011.5,218167.25,146414.390625,160138.90625,133656.46875,142932.4375,0.0
1713488669.2374957,157135.28125,144406.84375,233008.71875,218169.9375,146419.046875,160146.140625,133666.828125,142940.03125,0.0
1713488669.2400098,157146.984375,144401.484375,233008.09375,218173.515625,146417.171875,160143.375,133669.78125,142946.03125,0.0
1713488669.2424977,157148.421875,144399.34375,233008.984375,218176.546875,146418.234375,160141.9375,133670.234375,142946.921875,0.0
1713488669.2449872,157128.65625,144400.859375,233002.828125,218165.375,146419.484375,160142.203125,133668.796875,142939.40625,0.0
1713488669.2524316,157129.46875,144407.125,233005.140625,218177.265625,146430.125,160146.140625,133680.0625,142952.015625,0.0
1713488669.2524433,157154.59375,144407.921875,233014.890625,218198.71875,146438.4375,160147.3125,133683.734375,142969.1875,0.0
1713488669.2524476,157152.53125,144399.609375,233007.015625,218190.859375,146430.84375,160139.53125,133671.65625,142960.0625,0.0
1713488669.255024,157127.234375,144396.921875,232992.359375,218168.140625,146424.3125,160134.96875,133660.578125,142940.578125,0.0
1713488669.257484,157114.984375,144403.984375,232984.40625,218158.765625,146427.8125,160142.203125,133667.90625,142938.78125,0.0
1713488669.2624905,157139.125,144416.421875,232994.421875,218175.65625,146440.765625,160158.578125,133684.625,142952.640625,0.0
1713488669.2651033,157156.640625,144425.453125,233003.453125,218184.859375,146449.796875,160171.0,133693.296875,142958.453125,0.0
1713488669.2676208,157140.1875,144430.359375,232996.5625,218169.21875,146450.875,160174.75,133691.0625,142949.875,0.0
1713488669.2701163,157125.890625,144430.359375,232983.515625,218150.984375,146444.25,160166.890625,133680.875,142935.296875,0.0
1713488669.2763665,157134.46875,144420.96875,232974.75,218153.9375,146434.78125,160156.515625,133673.1875,142930.828125,0.0
1713488669.2788515,157145.203125,144416.5,232976.53125,218165.46875,146436.203125,160159.109375,133681.234375,142939.0625,0.0
1713488669.2813952,157131.25,144414.984375,232967.859375,218147.140625,146432.90625,160158.84375,133675.234375,142928.859375,0.0
1713488669.2863686,157108.0,144409.890625,232950.609375,218125.140625,146423.6875,160149.1875,133661.109375,142912.140625,0.0
1713488669.2888548,157110.6875,144402.46875,232943.09375,218129.078125,146419.3125,160143.8125,133663.078125,142921.4375,0.0
1713488669.2913733,157130.625,144406.484375,232952.484375,218144.90625,146430.390625,160154.375,133681.40625,142949.34375,0.0
1713488669.2964067,157127.234375,144411.3125,232953.296875,218143.65625,146436.75,160158.125,133685.609375,142959.34375,0.0
1713488669.2988799,157092.1875,144399.703125,232930.3125,218113.875,146423.953125,160142.5625,133670.328125,142942.8125,0.0
1713488669.301977,157097.015625,144400.5,232929.59375,218122.28125,146429.6875,160144.625,133678.546875,142954.4375,0.0
1713488669.3019874,157121.234375,144400.234375,232939.703125,218139.890625,146438.71875,160151.421875,133692.046875,142973.921875,0.0
1713488669.3064196,157124.28125,144397.46875,232939.34375,218139.265625,146437.546875,160146.328125,133689.1875,142974.28125,0.0
1713488669.3089192,157108.984375,144398.796875,232929.234375,218119.953125,146432.09375,160139.4375,133675.78125,142956.671875,0.0
1713488669.3119223,157103.359375,144395.578125,232916.1875,218111.640625,146421.90625,160127.90625,133658.4375,142944.59375,0.0
1713488669.311933,157115.6875,144396.65625,232919.9375,218125.5,146424.234375,160130.234375,133661.109375,142952.734375,0.0
1713488669.3138244,157134.921875,144418.734375,232940.59375,218146.515625,146447.109375,160155.703125,133685.4375,142972.140625,0.0
1713488669.316839,157125.171875,144426.15625,232934.515625,218131.484375,146450.6875,160162.5,133686.859375,142958.546875,0.0
1713488669.3168497,157129.46875,144423.5625,232922.71875,218119.859375,146444.875,160158.484375,133680.875,142945.3125,0.0
1713488669.31944,157154.765625,144421.0625,232923.875,218129.875,146443.890625,160160.1875,133683.734375,142949.96875,0.0
1713488669.3194509,157171.125,144420.625,232928.53125,218135.515625,146444.875,160164.5625,133684.71875,142950.40625,0.0
1713488669.3237371,157165.140625,144425.453125,232926.46875,218124.515625,146448.375,160170.28125,133686.6875,142942.8125,0.0
1713488669.3268664,157162.09375,144428.390625,232920.484375,218116.015625,146447.75,160170.90625,133686.328125,142939.234375,0.0
1713488669.3268776,157192.578125,144437.6875,232933.625,218138.46875,146457.40625,160179.84375,133697.328125,142957.109375,0.0
1713488669.3294015,157220.921875,144449.40625,232951.140625,218161.4375,146472.15625,160193.53125,133710.28125,142975.359375,0.0
1713488669.3294122,157220.21875,144456.203125,232951.765625,218156.34375,146476.171875,160197.734375,133711.453125,142972.40625,0.0
1713488669.3338268,157207.0625,144451.1875,232935.046875,218138.734375,146467.140625,160187.71875,133699.109375,142959.53125,0.0
1713488669.3388288,157211.8125,144443.328125,232923.34375,218138.375,146460.609375,160179.671875,133694.734375,142962.921875,0.0
1713488669.3438394,157221.28125,144432.421875,232919.40625,218138.828125,146456.328125,160175.640625,133696.078125,142969.625,0.0
1713488669.3468616,157199.640625,144421.59375,232905.359375,218118.34375,146448.90625,160166.890625,133691.25,142964.625,0.0
1713488669.3468728,157172.828125,144418.03125,232886.328125,218097.78125,146439.0625,160156.515625,133678.453125,142951.578125,0.0
1713488669.3487961,157191.25,144420.53125,232886.40625,218105.203125,146435.84375,160154.546875,133678.1875,142958.015625,0.0
1713488669.3518512,157215.03125,144425.171875,232898.390625,218125.765625,146444.796875,160163.046875,133690.078125,142976.421875,0.0
1713488669.3518703,157196.609375,144420.53125,232887.484375,218113.96875,146441.125,160160.265625,133689.453125,142970.609375,0.0
1713488669.3537304,157180.25,144428.390625,232879.171875,218095.640625,146442.203125,160163.9375,133693.84375,142962.296875,0.0
1713488669.356335,157211.890625,144448.0625,232894.109375,218119.15625,146457.671875,160177.34375,133707.875,142979.375,0.0
1713488669.3594096,157234.15625,144444.9375,232897.765625,218129.609375,146455.4375,160174.03125,133696.78125,142975.0,0.0
1713488669.3594236,157231.46875,144442.609375,232891.953125,218122.015625,146454.53125,160171.984375,133692.046875,142970.53125,0.0
1713488669.3613338,157217.625,144447.53125,232883.28125,218105.375,146455.875,160173.40625,133689.640625,142958.90625,0.0
1713488669.3712733,157212.796875,144441.265625,232869.78125,218096.359375,146446.140625,160167.15625,133679.4375,142944.859375,0.0
1713488669.3768692,157227.1875,144435.109375,232867.734375,218105.03125,146444.171875,160168.859375,133681.765625,142947.375,0.0
1713488669.3768833,157231.65625,144437.875,232871.21875,218112.09375,146451.3125,160175.46875,133689.71875,142954.796875,0.0
1713488669.3813188,157217.53125,144443.6875,232868.359375,218102.34375,146458.5625,160184.59375,133698.3125,142954.34375,0.0
1713488669.383819,157212.34375,144446.1875,232862.546875,218096.796875,146462.859375,160190.578125,133713.5,142966.140625,0.0
1713488669.3905709,157233.0,144448.78125,232869.25,218114.328125,146470.1875,160193.34375,133733.0,142992.875,0.0
1713488669.3905787,157231.65625,144436.265625,232858.609375,218105.375,146450.515625,160174.21875,133694.640625,142959.171875,0.0
1713488669.3925698,157208.765625,144422.3125,232837.859375,218081.421875,146433.265625,160154.28125,133659.6875,142925.109375,0.0
1713488669.404472,157202.78125,144415.796875,232823.015625,218065.328125,146430.578125,160149.265625,133663.265625,142925.46875,0.0
1713488669.4044807,157239.875,144427.0625,232835.984375,218085.796875,146445.421875,160161.34375,133684.265625,142951.296875,0.0
1713488669.4094884,157270.8125,144441.546875,232857.09375,218109.234375,146458.296875,160170.28125,133689.453125,142970.265625,0.0
1713488669.4095216,157253.375,144439.296875,232849.046875,218096.265625,146451.40625,160162.59375,133676.484375,142958.359375,0.0
1713488669.4113257,157224.6875,144430.0,232825.96875,218071.3125,146437.375,160150.53125,133666.75,142940.03125,0.0
1713488669.422611,157227.0,144418.65625,232812.109375,218066.40625,146424.671875,160138.28125,133657.71875,142935.65625,0.0
1713488669.425716,157242.109375,144417.578125,232816.046875,218079.640625,146426.640625,160141.3125,133663.796875,142944.234375,0.0
1713488669.4257262,157240.859375,144426.609375,232819.359375,218078.734375,146436.03125,160151.0625,133675.421875,142946.65625,0.0
1713488669.4338312,157227.453125,144432.421875,232814.0,218064.34375,146439.515625,160154.546875,133679.0,142942.1875,0.0
1713488669.436854,157234.515625,144430.8125,232809.171875,218064.875,146439.96875,160155.703125,133682.75,142948.265625,0.0
1713488669.4368644,157252.9375,144427.6875,232814.53125,218078.203125,146446.671875,160162.140625,133693.65625,142961.40625,0.0
1713488669.481384,157252.21875,144431.703125,232816.9375,218077.390625,146457.21875,160172.78125,133709.578125,142974.640625,0.0
1713488669.4839032,157245.875,144444.21875,232817.296875,218073.109375,146467.328125,160179.21875,133714.671875,142982.15625,0.0
1713488669.4888966,157250.609375,144443.78125,232809.796875,218077.125,146464.375,160174.671875,133705.8125,142982.6875,0.0
1713488669.4914207,157275.015625,144451.109375,232822.21875,218101.53125,146477.34375,160187.984375,133721.46875,143001.015625,0.0
1713488669.4938443,157256.875,144439.578125,232805.59375,218076.859375,146464.734375,160180.46875,133713.5,142984.46875,0.0
1713488669.496345,157228.25,144430.8125,232783.421875,218045.03125,146448.375,160164.5625,133691.6875,142957.296875,0.0
1713488669.498891,157246.765625,144447.796875,232793.25,218061.65625,146461.875,160177.4375,133704.5625,142967.046875,0.0
1713488669.501367,157275.46875,144456.734375,232807.640625,218082.21875,146473.140625,160190.484375,133721.109375,142980.890625,0.0
1713488669.5038671,157276.625,144451.828125,232807.28125,218085.796875,146468.3125,160186.640625,133714.9375,142971.234375,0.0
1713488669.5069182,157250.34375,144443.78125,232792.625,218061.75,146452.21875,160167.78125,133686.765625,142942.28125,0.0
1713488669.5069287,157202.15625,144413.46875,232750.421875,218012.046875,146416.984375,160134.515625,133649.578125,142902.390625,0.0
1713488669.5088396,157201.53125,144402.46875,232742.828125,218012.84375,146407.328125,160126.65625,133643.671875,142896.671875,0.0
1713488669.5112402,157219.859375,144414.53125,232757.484375,218030.375,146419.21875,160140.0625,133655.21875,142906.78125,0.0
1713488669.5138388,157227.0,144439.296875,232771.875,218036.71875,146443.09375,160164.203125,133679.625,142926.359375,0.0
1713488669.5388956,157227.453125,144452.53125,232774.75,218045.390625,146459.359375,160175.921875,133700.8125,142951.296875,0.0
1713488669.5645435,157246.5,144458.265625,232781.53125,218061.65625,146468.21875,160180.296875,133708.671875,142974.015625,0.0
1713488669.5645547,157255.34375,144453.78125,232781.1875,218061.484375,146470.546875,160180.921875,133712.515625,142988.140625,0.0
1713488669.5738387,157233.265625,144450.390625,232770.984375,218045.125,146476.0,160184.5,133725.390625,142999.40625,0.0
1713488669.5994284,157212.25,144444.125,232754.453125,218025.09375,146464.015625,160171.796875,133700.8125,142977.671875,0.0
1713488669.5994575,157236.21875,144447.078125,232756.859375,218036.453125,146463.03125,160170.546875,133695.09375,142979.90625,0.0
1713488669.6251843,157261.34375,144455.84375,232770.359375,218057.453125,146475.8125,160186.109375,133713.328125,142998.15625,0.0
1713488669.6413553,157253.015625,144464.875,232771.875,218053.171875,146483.6875,160198.171875,133724.328125,142999.859375,0.0
1713488669.6438103,157217.796875,144456.375,232749.4375,218025.28125,146470.0,160185.390625,133710.640625,142975.359375,0.0
1713488669.6463573,157228.4375,144458.265625,232748.09375,218033.3125,146469.296875,160181.8125,133708.953125,142974.546875,0.0
1713488669.6488287,157262.953125,144469.53125,232766.875,218060.40625,146485.5625,160196.390625,133728.703125,142995.375,0.0
1713488669.651304,157268.046875,144475.0625,232770.359375,218062.640625,146493.25,160205.78125,133739.34375,143001.28125,0.0
1713488669.6538424,157246.046875,144469.53125,232754.1875,218037.703125,146484.484375,160198.625,133726.375,142981.34375,0.0
1713488669.6563272,157245.609375,144464.15625,232743.265625,218032.0625,146476.625,160191.5625,133721.546875,142974.1875,0.0
1713488669.65884,157259.640625,144458.078125,232743.265625,218041.359375,146473.484375,160188.171875,133722.53125,142982.15625,0.0
1713488669.6613111,157254.625,144447.625,232736.125,218033.59375,146465.890625,160177.53125,133703.5,142973.484375,0.0
1713488669.6638396,157237.28125,144452.359375,232729.765625,218021.421875,146470.359375,160184.5,133706.625,142968.109375,0.0
1713488669.666319,157235.046875,144452.625,232719.671875,218013.46875,146463.03125,160175.640625,133690.078125,142957.65625,0.0
1713488669.6687613,157250.96875,144448.421875,232717.875,218020.0,146456.328125,160168.9375,133678.8125,142953.8125,0.0
1713488669.6712987,157260.984375,144454.953125,232725.296875,218030.1875,146464.8125,160176.8125,133692.140625,142964.359375,0.0
1713488669.6738212,157253.828125,144469.25,232732.1875,218026.609375,146477.875,160188.703125,133708.40625,142970.171875,0.0
1713488669.676883,157243.71875,144466.84375,232722.890625,218015.265625,146471.25,160179.765625,133696.703125,142958.359375,0.0
1713488669.6768937,157238.8125,144444.40625,232701.875,218004.53125,146452.21875,160159.203125,133675.59375,142945.5,0.0
1713488669.6788304,157240.5,144435.453125,232694.453125,218003.546875,146450.328125,160160.1875,133681.953125,142951.578125,0.0
1713488669.6813283,157223.703125,144433.671875,232683.453125,217983.78125,146451.859375,160164.296875,133689.453125,142952.46875,0.0
1713488669.6863306,157232.375,144452.71875,232689.625,217988.34375,146467.6875,160179.84375,133704.5625,142972.765625,0.0
1713488669.68881,157252.125,144456.46875,232694.015625,218003.015625,146470.71875,160183.6875,133709.296875,142984.296875,0.0
1713488669.69135,157251.328125,144444.125,232684.796875,218000.953125,146463.203125,160177.078125,133705.28125,142984.65625,0.0
1713488669.6938252,157229.421875,144435.734375,232670.40625,217981.828125,146455.4375,160171.09375,133698.03125,142973.203125,0.0
1713488669.6988308,157221.90625,144442.609375,232665.9375,217968.671875,146458.375,160175.109375,133700.0,142969.28125,0.0
1713488669.7013376,157243.71875,144452.53125,232674.609375,217985.046875,146468.21875,160184.671875,133712.875,142984.203125,0.0
1713488669.7038245,157267.15625,144458.890625,232687.03125,218005.609375,146482.25,160198.625,133732.546875,143003.96875,0.0
1713488669.706342,157271.890625,144471.046875,232693.390625,218003.90625,146493.96875,160211.5,133744.171875,143007.0,0.0
1713488669.7088592,157265.453125,144480.703125,232688.640625,217988.703125,146496.46875,160215.796875,133747.84375,142997.4375,0.0
1713488669.712494,157277.875,144477.125,232679.25,217984.0625,146483.78125,160207.5625,133725.3125,142973.65625,0.0
1713488669.712505,157288.078125,144464.515625,232672.109375,217986.296875,146472.421875,160200.6875,133709.390625,142960.328125,0.0
1713488669.7125096,157275.375,144450.296875,232657.625,217972.796875,146463.484375,160191.734375,133705.375,142951.296875,0.0
1713488669.7156208,157263.65625,144450.84375,232648.953125,217956.515625,146461.953125,160190.84375,133704.03125,142943.796875,0.0
1713488669.7156377,157277.609375,144454.328125,232643.765625,217957.953125,146461.25,160191.390625,133705.109375,142951.75,0.0
1713488669.719391,157306.046875,144458.34375,232651.8125,217976.28125,146466.078125,160195.5,133708.234375,142968.65625,0.0
1713488669.7194016,157306.484375,144457.1875,232651.1875,217976.90625,146468.03125,160197.375,133713.234375,142975.09375,0.0
1713488669.7194064,157291.828125,144460.9375,232646.625,217965.546875,146473.9375,160200.140625,133717.796875,142978.84375,0.0
1713488669.7194104,157278.234375,144451.640625,232630.078125,217953.296875,146463.296875,160184.5,133699.46875,142967.484375,0.0
1713488669.721908,157283.78125,144437.6875,232620.421875,217954.375,146451.671875,160171.796875,133685.96875,142963.90625,0.0
1713488669.7219186,157291.296875,144436.984375,232622.296875,217958.578125,146456.59375,160174.9375,133694.1875,142971.953125,0.0
1713488669.7519684,157282.171875,144446.375,232622.9375,217949.546875,146469.203125,160186.28125,133712.609375,142974.375,0.0
1713488669.7519784,157275.109375,144448.421875,232613.8125,217939.359375,146469.5625,160183.515625,133714.75,142973.03125,0.0
1713488669.7519827,157287.53125,144445.296875,232614.078125,217952.140625,146468.65625,160179.765625,133710.28125,142980.8125,0.0
1713488669.7519865,157288.421875,144437.0625,232610.859375,217951.0625,146466.15625,160180.828125,133711.265625,142979.109375,0.0
1713488669.7519903,157264.921875,144431.96875,232597.453125,217930.328125,146457.75,160176.984375,133699.015625,142959.890625,0.0
1713488669.7549543,157238.0,144425.265625,232579.65625,217913.515625,146449.984375,160172.078125,133694.734375,142950.046875,0.0
1713488669.754962,157243.453125,144424.734375,232580.546875,217923.171875,146451.9375,160174.578125,133700.71875,142961.40625,0.0
1713488669.7549665,157255.53125,144429.375,232591.1875,217939.0,146460.4375,160179.84375,133704.390625,142974.1875,0.0
1713488669.7580628,157252.046875,144442.4375,232598.171875,217942.84375,146475.546875,160192.09375,133723.34375,142986.984375,0.0
1713488669.7580671,157242.109375,144453.4375,232595.75,217931.671875,146481.625,160198.890625,133729.234375,142985.375,0.0
1713488669.7600548,157233.890625,144435.8125,232572.6875,217918.25,146460.171875,160178.15625,133703.3125,142967.046875,0.0
1713488669.7625945,157252.390625,144423.921875,232567.5,217920.40625,146449.625,160167.421875,133692.3125,142963.828125,0.0
1713488669.76508,157265.1875,144435.28125,232577.0625,217924.953125,146461.328125,160179.84375,133707.515625,142972.84375,0.0
1713488669.7675807,157263.9375,144451.109375,232582.703125,217923.34375,146478.046875,160197.375,133732.28125,142986.34375,0.0
1713488669.7701054,157276.53125,144454.0625,232582.34375,217932.109375,146479.84375,160196.5625,133731.203125,142988.046875,0.0
1713488669.773754,157286.90625,144439.9375,232575.546875,217937.203125,146464.375,160178.6875,133706.0,142974.8125,0.0
1713488669.7737803,157277.4375,144430.984375,232566.25,217925.5,146452.75,160167.515625,133690.34375,142963.640625,0.0
1713488669.773793,157258.828125,144435.546875,232558.46875,217908.59375,146453.015625,160169.390625,133686.59375,142956.40625,0.0
1713488669.7762852,157259.109375,144439.296875,232555.421875,217912.359375,146456.5,160173.328125,133689.453125,142960.609375,0.0
1713488669.778805,157273.046875,144440.203125,232563.03125,217929.15625,146462.9375,160175.734375,133697.5,142976.6875,0.0
1713488669.7813082,157270.8125,144439.03125,232562.140625,217928.453125,146465.359375,160174.9375,133699.109375,142978.84375,0.0
1713488669.7838185,157253.734375,144442.34375,232553.46875,217909.671875,146467.328125,160176.546875,133703.5,142973.921875,0.0
1713488669.7869089,157249.71875,144441.453125,232543.359375,217902.078125,146465.4375,160171.625,133702.59375,142970.078125,0.0
1713488669.7869196,157270.015625,144442.4375,232550.25,217918.4375,146472.6875,160176.90625,133710.28125,142980.1875,0.0
1713488669.7888355,157284.859375,144446.546875,232556.953125,217923.171875,146481.1875,160186.375,133720.5625,142987.953125,0.0
1713488669.791874,157270.28125,144443.953125,232543.0,217902.078125,146477.0625,160185.9375,133723.15625,142980.453125,0.0
1713488669.7918885,157262.40625,144440.375,232528.421875,217890.453125,146470.71875,160181.8125,133721.46875,142976.875,0.0
1713488669.7938423,157264.5625,144433.140625,232522.171875,217894.5625,146465.890625,160178.78125,133717.890625,142979.109375,0.0
1713488669.7963388,157263.578125,144425.171875,232518.765625,217896.4375,146461.875,160176.09375,133715.5625,142979.5625,0.0
1713488669.7994828,157243.90625,144414.265625,232503.84375,217877.578125,146447.921875,160163.21875,133697.5,142954.515625,0.0
1713488669.7994933,157240.328125,144424.46875,232505.1875,217882.046875,146453.640625,160163.84375,133693.921875,142955.78125,0.0
1713488669.805097,157252.75,144431.4375,232510.71875,217894.5625,146463.125,160171.796875,133706.4375,142976.25,0.0
1713488669.810694,157258.65625,144427.6875,232510.640625,217897.25,146464.734375,160176.1875,133713.234375,142985.453125,0.0
1713488669.8107047,157245.515625,144434.46875,232509.734375,217888.921875,146469.5625,160182.796875,133714.671875,142982.15625,0.0
1713488669.8125591,157226.109375,144444.765625,232506.25,217880.609375,146474.203125,160188.875,133717.0,142977.765625,0.0
1713488669.8188396,157223.421875,144439.484375,232499.375,217879.71875,146465.71875,160178.515625,133705.546875,142973.484375,0.0
1713488669.8256285,157223.875,144429.015625,232496.6875,217882.84375,146459.015625,160170.46875,133694.375,142969.90625,0.0
1713488669.825639,157211.8125,144429.46875,232493.375,217875.34375,146460.703125,160171.796875,133694.375,142969.984375,0.0
1713488669.827582,157196.515625,144436.4375,232488.640625,217864.34375,146466.78125,160176.984375,133702.15625,142973.484375,0.0
1713488669.8313804,157207.78125,144444.9375,232494.28125,217877.75,146476.796875,160184.140625,133717.4375,142992.078125,0.0
1713488669.841362,157227.90625,144446.640625,232504.5625,217895.546875,146482.34375,160185.75,133720.921875,143003.15625,0.0
1713488669.844467,157227.359375,144448.6875,232505.625,217897.15625,146488.25,160191.296875,133728.703125,143008.171875,0.0
1713488669.844482,157210.109375,144449.234375,232492.671875,217881.15625,146489.578125,160195.40625,133736.125,143006.46875,0.0
1713488669.846356,157203.484375,144443.6875,232479.15625,217874.4375,146479.921875,160187.0,133726.734375,142997.34375,0.0
1713488669.8625908,157220.21875,144444.484375,232484.171875,217886.515625,146480.203125,160189.328125,133727.28125,143003.515625,0.0
1713488669.8656464,157222.53125,144445.203125,232480.234375,217877.75,146477.0625,160190.578125,133721.90625,142995.734375,0.0
1713488669.8656676,157206.890625,144451.109375,232473.4375,217863.984375,146475.546875,160193.796875,133717.34375,142984.03125,0.0
1713488669.867581,157194.8125,144447.984375,232462.0,217855.84375,146468.84375,160190.765625,133712.609375,142979.46875,0.0
1713488669.8700368,157208.40625,144447.703125,232467.8125,217872.125,146474.203125,160195.9375,133724.40625,142996.0,0.0
1713488669.8738656,157219.765625,144455.671875,232480.59375,217887.859375,146486.71875,160203.546875,133734.609375,143014.421875,0.0
1713488669.8994899,157196.34375,144450.75,232468.078125,217864.78125,146480.109375,160195.234375,133721.109375,142995.65625,0.0
1713488669.8995,157183.203125,144445.203125,232454.3125,217852.09375,146473.765625,160187.984375,133713.234375,142986.265625,0.0
1713488669.9245608,157192.859375,144439.75,232449.484375,217856.03125,146470.625,160184.328125,133713.5,142987.609375,0.0
1713488669.9245825,157199.921875,144435.546875,232448.5,217857.09375,146469.734375,160184.140625,133715.65625,142989.125,0.0
1713488669.9501033,157177.296875,144428.84375,232433.921875,217835.109375,146463.5625,160177.078125,133706.078125,142976.421875,0.0
1713488669.9764163,157154.5,144420.703125,232415.78125,217815.96875,146456.0625,160167.953125,133700.625,142966.59375,0.0
1713488669.9914217,157162.71875,144413.203125,232411.296875,217823.921875,146453.640625,160161.4375,133702.515625,142975.09375,0.0
1713488669.9938707,157180.515625,144412.125,232418.09375,217839.75,146455.609375,160161.796875,133695.984375,142981.078125,0.0
1713488669.9964013,157178.015625,144416.5,232416.671875,217835.8125,146458.828125,160169.203125,133699.015625,142980.8125,0.0
1713488669.9988947,157173.890625,144427.328125,232414.875,217830.8125,146467.328125,160183.421875,133715.390625,142989.390625,0.0
1713488670.0014093,157191.59375,144432.78125,232418.640625,217845.828125,146473.578125,160191.296875,133719.5,142999.5,0.0
1713488670.0038044,157197.765625,144427.0625,232415.78125,217843.421875,146468.578125,160187.1875,133713.859375,142998.0625,0.0
1713488670.0063124,157188.921875,144427.859375,232411.484375,217832.515625,146467.328125,160188.171875,133716.09375,142989.75,0.0
1713488670.0088284,157168.0,144427.40625,232398.875,217812.484375,146464.1875,160186.734375,133716.71875,142976.421875,0.0
1713488670.0113623,157169.0625,144424.46875,232390.03125,217806.046875,146456.953125,160174.21875,133703.5,142969.90625,0.0
1713488670.0138335,157190.703125,144427.859375,232400.75,217825.1875,146464.734375,160174.484375,133712.171875,142988.59375,0.0
1713488670.0188475,157194.28125,144436.0,232407.546875,217830.453125,146472.6875,160182.265625,133717.0,142991.625,0.0
1713488670.0213113,157168.4375,144434.296875,232393.15625,217809.625,146466.34375,160177.609375,133707.421875,142973.390625,0.0
1713488670.023847,157163.609375,144426.078125,232380.28125,217804.265625,146457.21875,160168.046875,133702.15625,142970.4375,0.0
1713488670.0263188,157196.515625,144429.46875,232389.21875,217820.265625,146463.03125,160174.03125,133714.3125,142985.90625,0.0
1713488670.0375173,157208.40625,144431.890625,232390.828125,217819.1875,146464.546875,160176.71875,133715.203125,142986.265625,0.0
1713488670.037557,157189.71875,144429.921875,232376.171875,217797.828125,146457.578125,160172.25,133703.3125,142968.296875,0.0
1713488670.0375617,157182.65625,144429.375,232365.078125,217787.1875,146452.84375,160169.390625,133695.984375,142960.0625,0.0
1713488670.0375652,157191.421875,144427.59375,232366.875,217797.734375,146455.25,160170.28125,133698.84375,142968.296875,0.0
1713488670.0375688,157193.296875,144427.5,232369.1875,217802.921875,146459.1875,160174.9375,133703.9375,142973.5625,0.0
1713488670.037573,157179.078125,144429.640625,232363.109375,217791.296875,146461.6875,160179.140625,133709.84375,142970.53125,0.0
1713488670.037577,157177.03125,144424.375,232349.34375,217778.234375,146455.515625,160172.421875,133701.078125,142963.1875,0.0
1713488670.0375807,157201.171875,144420.96875,232348.359375,217786.375,146452.921875,160167.6875,133698.125,142971.234375,0.0
1713488670.0400345,157216.015625,144427.953125,232359.71875,217800.859375,146465.53125,160183.6875,133725.21875,142993.6875,0.0
1713488670.0425584,157190.078125,144425.453125,232349.609375,217785.65625,146459.8125,160180.296875,133714.484375,142979.46875,0.0
1713488670.045077,157157.359375,144415.078125,232325.65625,217757.40625,146441.578125,160163.84375,133685.25,142947.734375,0.0
1713488670.0500588,157158.875,144412.65625,232319.65625,217759.46875,146440.953125,160161.96875,133687.671875,142954.515625,0.0
1713488670.0537562,157170.40625,144410.6875,232323.234375,217770.46875,146444.609375,160163.046875,133695.71875,142968.296875,0.0
1713488670.0537672,157168.359375,144417.84375,232325.921875,217770.015625,146452.125,160171.53125,133705.1875,142973.65625,0.0
1713488670.0537715,157158.78125,144425.171875,232320.203125,217759.28125,146454.984375,160176.28125,133706.359375,142967.390625,0.0
1713488670.0569232,157167.734375,144424.28125,232317.15625,217763.578125,146452.921875,160172.703125,133701.53125,142966.953125,0.0
1713488670.0569339,157184.359375,144420.4375,232320.90625,217776.09375,146451.40625,160166.890625,133696.515625,142966.140625,0.0
1713488670.058835,157176.046875,144418.734375,232317.6875,217769.390625,146452.296875,160165.1875,133699.109375,142964.265625,0.0
1713488670.0625007,157162.546875,144426.15625,232314.125,217753.03125,146456.953125,160170.46875,133701.96875,142960.515625,0.0
1713488670.0625143,157170.046875,144430.625,232315.1875,217761.796875,146461.25,160174.21875,133702.328125,142964.984375,0.0
1713488670.0625207,157183.109375,144424.28125,232317.875,217773.859375,146463.03125,160174.21875,133705.734375,142975.359375,0.0
1713488670.065101,157178.90625,144419.8125,232311.609375,217766.265625,146460.53125,160171.0,133705.546875,142978.9375,0.0
1713488670.0675948,157157.359375,144417.21875,232296.59375,217743.640625,146453.90625,160166.171875,133701.796875,142969.8125,0.0
1713488670.0701,157165.5,144421.25,232291.046875,217742.296875,146451.40625,160166.0,133698.578125,142965.4375,0.0
1713488670.0725656,157188.203125,144420.171875,232294.71875,217755.625,146452.921875,160169.484375,133703.671875,142977.953125,0.0
1713488670.0756176,157188.203125,144418.296875,232294.0,217756.6875,146456.59375,160176.984375,133717.0,142993.140625,0.0
1713488670.0756392,157158.703125,144412.484375,232278.53125,217734.515625,146450.515625,160175.640625,133711.546875,142981.25,0.0
1713488670.0776007,157138.40625,144401.9375,232259.671875,217717.265625,146436.484375,160164.46875,133694.1875,142960.328125,0.0
1713488670.0801184,157154.9375,144401.9375,232263.15625,217729.515625,146438.265625,160163.75,133697.234375,142969.71875,0.0
1713488670.082584,157162.8125,144400.6875,232263.15625,217731.390625,146436.828125,160161.4375,133695.984375,142965.25,0.0
1713488670.085688,157146.71875,144398.796875,232250.546875,217710.109375,146426.640625,160150.078125,133672.640625,142939.140625,0.0
1713488670.0857198,157157.359375,144423.03125,232264.046875,217723.25,146448.375,160171.53125,133692.140625,142956.40625,0.0
1713488670.0875845,157178.546875,144436.53125,232279.34375,217749.0,146467.40625,160190.578125,133717.0,142984.390625,0.0
1713488670.0901,157179.078125,144429.109375,232276.296875,217746.765625,146462.046875,160183.6875,133711.1875,142981.796875,0.0
1713488670.0968647,157158.609375,144426.34375,232266.828125,217734.4375,146458.296875,160175.375,133706.0,142975.796875,0.0
1713488670.0968752,157142.0625,144427.140625,232256.09375,217723.53125,146458.46875,160174.3125,133711.984375,142975.09375,0.0
1713488670.1069276,157154.9375,144427.0625,232255.109375,217734.25,146458.734375,160176.453125,133717.703125,142980.546875,0.0
1713488670.1069384,157172.640625,144429.921875,232263.328125,217742.921875,146460.53125,160180.03125,133715.109375,142981.796875,0.0
1713488670.1088529,157153.25,144424.375,232252.34375,217721.46875,146453.640625,160173.328125,133709.125,142970.703125,0.0
1713488670.115119,157131.25,144420.34375,232238.84375,217704.125,146446.046875,160162.234375,133696.96875,142953.984375,0.0
1713488670.1218903,157137.78125,144414.890625,232233.203125,217709.046875,146439.15625,160152.3125,133683.5625,142948.171875,0.0
1713488670.1219313,157153.15625,144409.703125,232235.078125,217719.5,146437.640625,160147.84375,133677.65625,142948.0,0.0
1713488670.1237981,157148.59375,144408.28125,232232.3125,217714.140625,146440.5,160147.9375,133677.296875,142944.953125,0.0
1713488670.1344955,157131.703125,144406.21875,232222.125,217695.625,146442.734375,160147.125,133679.4375,142944.15625,0.0
1713488670.1345067,157148.5,144417.21875,232228.46875,217708.765625,146455.25,160159.109375,133696.25,142967.75,0.0
1713488670.136268,157170.046875,144419.640625,232234.8125,217721.5625,146456.234375,160163.578125,133696.25,142978.390625,0.0
1713488670.147546,157172.640625,144425.09375,232235.34375,217715.296875,146458.5625,160170.46875,133698.84375,142981.4375,0.0
1713488670.1505976,157153.15625,144428.671875,232224.4375,217698.140625,146457.21875,160173.765625,133700.546875,142977.953125,0.0
1713488670.1506069,157150.296875,144431.25,232217.734375,217696.078125,146455.875,160175.828125,133705.109375,142977.59375,0.0
1713488670.1525292,157175.953125,144434.828125,232226.671875,217715.65625,146463.5625,160182.71875,133716.09375,142994.046875,0.0
1713488670.1588614,157188.65625,144434.828125,232226.953125,217718.78125,146466.96875,160188.34375,133722.53125,143001.640625,0.0
1713488670.165661,157171.03125,144430.984375,232212.46875,217699.46875,146463.921875,160185.84375,133724.59375,142994.75,0.0
1713488670.1656892,157157.171875,144422.9375,232194.140625,217684.0,146451.3125,160171.984375,133706.4375,142977.234375,0.0
1713488670.175639,157169.34375,144421.875,232197.0,217693.84375,146452.578125,160173.40625,133706.625,142981.609375,0.0
1713488670.1756492,157185.15625,144429.921875,232208.625,217703.9375,146462.046875,160182.625,133713.859375,142987.78125,0.0
1713488670.1775713,157178.09375,144437.6875,232206.734375,217693.75,146464.640625,160185.125,133714.40625,142981.25,0.0
1713488670.181306,157181.859375,144450.921875,232207.71875,217690.4375,146472.328125,160194.15625,133724.765625,142984.65625,0.0
1713488670.1881404,157200.625,144452.53125,232211.921875,217702.875,146472.15625,160192.546875,133722.359375,142987.421875,0.0
1713488670.188151,157210.375,144445.921875,232210.5,217705.46875,146467.046875,160187.453125,133718.25,142983.484375,0.0
1713488670.1976163,157196.78125,144440.203125,232197.0,217681.328125,146458.46875,160182.078125,133714.578125,142965.96875,0.0
1713488670.2044933,157180.25,144435.453125,232182.875,217665.859375,146446.140625,160166.796875,133689.28125,142938.96875,0.0
1713488670.204504,157185.25,144425.625,232174.109375,217664.875,146436.203125,160155.078125,133678.734375,142930.109375,0.0
1713488670.2069387,157216.640625,144430.359375,232186.265625,217684.28125,146447.65625,160163.578125,133690.171875,142945.9375,0.0
1713488670.2069497,157230.40625,144444.9375,232196.453125,217692.5,146461.421875,160177.34375,133698.125,142958.71875,0.0
1713488670.2139509,157203.578125,144438.859375,232175.984375,217668.546875,146452.125,160170.546875,133688.375,142948.703125,0.0
1713488670.227012,157203.671875,144435.734375,232168.109375,217669.96875,146450.6875,160168.5,133691.25,142963.375,0.0
1713488670.227062,157216.71875,144433.578125,232172.140625,217682.046875,146453.375,160170.46875,133696.78125,142979.5625,0.0
1713488670.22959,157204.46875,144427.234375,232161.859375,217669.796875,146447.109375,160166.0,133694.28125,142976.34375,0.0
1713488670.2296,157172.015625,144418.5625,232140.84375,217642.796875,146435.578125,160154.8125,133685.171875,142963.015625,0.0
1713488670.2314441,157173.546875,144417.9375,232134.234375,217641.359375,146434.234375,160154.640625,133688.375,142966.328125,0.0
1713488670.2377164,157211.453125,144433.046875,232156.046875,217667.640625,146455.609375,160174.671875,133714.484375,142991.171875,0.0
1713488670.2456496,157224.234375,144443.0625,232166.953125,217677.84375,146469.015625,160184.5,133722.453125,143001.015625,0.0
1713488670.2456784,157201.609375,144439.03125,232152.375,217657.8125,146463.203125,160177.796875,133715.390625,142986.625,0.0
1713488670.2701359,157200.265625,144431.703125,232136.375,217646.640625,146452.65625,160166.703125,133703.3125,142974.015625,0.0
1713488670.2982209,157232.015625,144433.9375,232143.796875,217664.25,146456.421875,160170.1875,133708.59375,142982.859375,0.0
1713488670.29825,157245.421875,144438.328125,232148.53125,217667.015625,146462.671875,160180.390625,133721.546875,142987.6875,0.0
1713488670.3226075,157229.6875,144444.9375,232144.15625,217654.765625,146464.46875,160185.578125,133717.625,142976.421875,0.0
1713488670.348195,157225.390625,144450.21875,232139.859375,217651.90625,146465.53125,160188.703125,133712.96875,142969.71875,0.0
1713488670.3482325,157230.84375,144441.265625,232133.421875,217654.59375,146459.453125,160183.25,133710.015625,142969.09375,0.0
1713488670.3726249,157228.34375,144431.25,232127.171875,217651.109375,146453.375,160177.890625,133705.734375,142963.828125,0.0
1713488670.397643,157216.90625,144434.921875,232125.46875,217641.890625,146454.890625,160178.328125,133699.734375,142955.140625,0.0
1713488670.4026628,157208.140625,144437.78125,232120.28125,217634.390625,146451.234375,160171.171875,133691.421875,142947.28125,0.0
1713488670.4051614,157225.9375,144442.4375,232125.65625,217646.90625,146454.71875,160171.984375,133697.953125,142957.828125,0.0
1713488670.407679,157248.203125,144446.28125,232133.25,217656.5625,146457.84375,160174.578125,133699.734375,142962.21875,0.0
1713488670.4101737,157235.140625,144442.078125,232121.453125,217640.375,146454.09375,160172.421875,133698.125,142951.578125,0.0
1713488670.4127228,157220.84375,144441.359375,232107.59375,217624.46875,146455.25,160173.40625,133705.28125,142953.625,0.0
1713488670.4151697,157233.53125,144434.03125,232099.71875,217624.015625,146450.15625,160166.171875,133702.15625,142962.296875,0.0
1713488670.4176717,157259.015625,144429.203125,232104.015625,217636.0,146451.59375,160167.875,133707.78125,142975.71875,0.0
1713488670.4226704,157257.046875,144427.0625,232099.453125,217626.78125,146448.546875,160168.234375,133700.359375,142968.46875,0.0
1713488670.425196,157242.5625,144434.390625,232093.015625,217614.71875,146451.765625,160174.03125,133700.453125,142965.703125,0.0
1713488670.42762,157237.375,144431.078125,232083.0,217612.921875,146449.796875,160172.515625,133701.796875,142970.609375,0.0
1713488670.4301636,157244.796875,144427.0625,232083.453125,217623.203125,146451.40625,160175.015625,133706.71875,142979.90625,0.0
1713488670.435162,157238.0,144430.359375,232085.140625,217626.15625,146457.125,160181.015625,133714.40625,142981.875,0.0
1713488670.478915,157216.1875,144432.515625,232077.1875,217606.140625,146454.53125,160179.84375,133711.359375,142970.4375,0.0
1713488670.4813666,157216.90625,144433.40625,232072.265625,217604.4375,146448.1875,160174.125,133701.4375,142964.0,0.0
1713488670.4838922,157230.3125,144429.640625,232072.71875,217610.421875,146441.65625,160169.484375,133695.71875,142960.953125,0.0
1713488670.4863763,157228.171875,144425.265625,232068.515625,217606.9375,146438.4375,160167.15625,133695.171875,142957.5625,0.0
1713488670.488866,157209.75,144429.375,232062.609375,217595.578125,146440.140625,160167.0625,133691.15625,142944.421875,0.0
1713488670.4914477,157197.859375,144426.703125,232053.234375,217589.765625,146437.734375,160160.0,133686.765625,142940.125,0.0
1713488670.4938169,157210.015625,144422.9375,232056.359375,217597.46875,146440.046875,160156.875,133689.90625,142951.296875,0.0
1713488670.49646,157220.03125,144426.78125,232064.5,217605.515625,146447.65625,160161.25,133699.828125,142964.265625,0.0
1713488670.4988384,157195.625,144422.859375,232051.171875,217584.765625,146440.40625,160152.578125,133689.8125,142950.953125,0.0
1713488670.5014467,157179.4375,144418.46875,232035.34375,217569.65625,146431.203125,160146.328125,133680.6875,142941.109375,0.0
1713488670.5038707,157199.734375,144425.453125,232041.875,217583.421875,146437.546875,160157.140625,133688.03125,142954.4375,0.0
1713488670.5064604,157213.59375,144429.296875,232046.078125,217588.96875,146440.234375,160165.28125,133688.296875,142955.328125,0.0
1713488670.5088851,157194.90625,144428.578125,232036.59375,217574.3125,146440.5,160168.5,133692.5,142946.65625,0.0
1713488670.5114377,157180.0625,144432.421875,232029.09375,217566.703125,146446.9375,160175.46875,133704.203125,142950.765625,0.0
1713488670.51386,157191.875,144431.703125,232031.234375,217578.859375,146453.375,160179.21875,133713.15625,142967.84375,0.0
1713488670.516416,157201.96875,144426.609375,232035.078125,217590.046875,146456.59375,160181.109375,133716.640625,142980.984375,0.0
1713488670.5259745,157187.046875,144422.578125,232025.953125,217580.46875,146452.921875,160178.0625,133713.421875,142978.03125,0.0
1713488670.5259824,157168.265625,144421.0625,232012.734375,217564.203125,146445.59375,160172.25,133705.546875,142967.671875,0.0
1713488670.525986,157173.265625,144421.25,232009.59375,217568.84375,146443.984375,160170.109375,133711.546875,142979.46875,0.0
1713488670.5259895,157186.234375,144422.9375,232014.515625,217578.328125,146447.03125,160171.625,133717.796875,142992.34375,0.0
1713488670.525993,157170.234375,144417.75,232003.421875,217560.625,146438.171875,160163.3125,133701.53125,142973.75,0.0
1713488670.5259972,157147.4375,144413.109375,231987.25,217534.78125,146428.515625,160153.46875,133685.4375,142950.859375,0.0
1713488670.5260007,157157.359375,144413.28125,231985.015625,217538.0,146428.703125,160153.125,133685.875,142952.640625,0.0
1713488670.526005,157189.1875,144423.84375,232004.140625,217565.359375,146445.15625,160169.03125,133701.96875,142970.96875,0.0
1713488670.5260084,157199.296875,144435.546875,232016.75,217578.78125,146462.3125,160183.875,133717.625,142985.015625,0.0
1713488670.5260122,157179.171875,144429.375,232000.65625,217555.53125,146452.390625,160175.828125,133701.25,142960.25,0.0
1713488670.5300553,157177.109375,144420.53125,231985.734375,217542.921875,146442.640625,160167.953125,133699.5625,142957.390625,0.0
1713488670.5331821,157193.03125,144416.0625,231987.25,217554.8125,146443.0,160167.421875,133705.453125,142968.46875,0.0
1713488670.5331924,157190.96875,144414.71875,231984.75,217553.03125,146440.234375,160163.21875,133697.765625,142961.046875,0.0
1713488670.53631,157163.96875,144407.921875,231967.84375,217528.078125,146428.4375,160149.265625,133678.90625,142937.796875,0.0
1713488670.536322,157162.8125,144409.625,231960.515625,217523.703125,146426.015625,160146.59375,133675.59375,142934.3125,0.0
1713488670.5363274,157193.5625,144419.28125,231974.109375,217547.125,146437.734375,160159.46875,133690.34375,142953.53125,0.0
1713488670.5406215,157202.234375,144424.28125,231980.625,217555.078125,146446.765625,160169.75,133703.9375,142963.640625,0.0
1713488670.5406425,157182.921875,144428.75,231975.53125,217542.03125,146450.421875,160171.359375,133704.46875,142964.0,0.0
1713488670.5406566,157170.046875,144423.390625,231962.296875,217529.25,146445.328125,160161.96875,133695.0,142958.90625,0.0
1713488670.5406632,157181.9375,144413.203125,231958.015625,217537.375,146443.0,160158.03125,133696.421875,142967.84375,0.0
1713488670.5451195,157192.765625,144411.140625,231959.796875,217541.9375,146444.703125,160164.203125,133702.15625,142976.6875,0.0
1713488670.5476232,157182.484375,144415.609375,231956.21875,217527.09375,146447.921875,160171.09375,133706.71875,142977.046875,0.0
1713488670.5501225,157168.265625,144413.640625,231943.53125,217513.59375,146443.890625,160167.15625,133706.890625,142973.296875,0.0
1713488670.552544,157187.671875,144414.0,231944.953125,217523.515625,146442.46875,160164.03125,133704.5625,142973.5625,0.0
1713488670.5562153,157216.09375,144422.40625,231958.1875,217542.03125,146450.328125,160168.765625,133709.03125,142984.921875,0.0
1713488670.5562303,157216.453125,144428.578125,231958.1875,217535.140625,146452.03125,160167.953125,133708.671875,142981.875,0.0
1713488670.5562341,157206.890625,144430.8125,231949.34375,217519.671875,146447.5625,160162.6875,133705.734375,142970.796875,0.0
1713488670.5593898,157222.265625,144435.28125,231951.65625,217529.953125,146449.890625,160162.328125,133706.265625,142978.84375,0.0
1713488670.5593946,157243.375,144440.375,231963.46875,217546.40625,146458.203125,160171.625,133714.3125,142993.234375,0.0
1713488670.5630536,157234.96875,144437.875,231956.9375,217538.1875,146459.015625,160177.25,133723.78125,142995.375,0.0
1713488670.5630643,157211.8125,144431.96875,231937.453125,217517.359375,146449.359375,160174.484375,133711.546875,142975.4375,0.0
1713488670.5630684,157201.703125,144422.140625,231918.5,217502.6875,146436.921875,160168.234375,133697.6875,142962.296875,0.0
1713488670.5630732,157216.8125,144422.765625,231924.125,217514.9375,146442.640625,160174.671875,133700.90625,142974.28125,0.0
1713488670.565065,157211.1875,144418.921875,231918.5,217506.359375,146440.765625,160171.625,133696.78125,142968.65625,0.0
1713488670.5674953,157198.578125,144424.015625,231911.421875,217486.15625,146443.625,160173.953125,133697.765625,142958.09375,0.0
1713488670.5706308,157212.609375,144435.734375,231916.171875,217489.8125,146454.890625,160182.078125,133712.96875,142969.453125,0.0
1713488670.570637,157234.25,144433.21875,231919.921875,217501.078125,146457.125,160178.0625,133717.34375,142981.703125,0.0
1713488670.5725121,157233.0,144423.390625,231913.671875,217498.3125,146450.421875,160164.109375,133707.78125,142977.953125,0.0
1713488670.575066,157213.328125,144419.015625,231901.421875,217482.75,146446.9375,160158.84375,133700.546875,142966.140625,0.0
1713488670.577546,157213.59375,144420.078125,231895.25,217485.078125,146449.359375,160160.8125,133700.0,142966.5,0.0
1713488670.585013,157233.171875,144419.8125,231901.953125,217509.125,146455.34375,160166.53125,133704.46875,142979.28125,0.0
1713488670.5850244,157242.203125,144424.28125,231911.078125,217525.484375,146466.703125,160178.859375,133716.015625,142992.25,0.0
1713488670.585029,157219.578125,144425.453125,231902.84375,217511.359375,146470.0,160186.203125,133724.765625,142994.046875,0.0
1713488670.5876176,157211.0,144427.59375,231893.453125,217503.859375,146469.375,160190.125,133726.828125,142993.59375,0.0
1713488670.5901055,157222.0,144425.453125,231893.8125,217514.9375,146467.953125,160191.46875,133724.40625,142994.671875,0.0
1713488670.5925465,157231.390625,144424.375,231896.140625,217514.484375,146469.46875,160194.6875,133727.71875,142999.671875,0.0
1713488670.5950112,157229.859375,144423.65625,231887.375,217496.4375,146464.1875,160186.5625,133719.140625,142987.421875,0.0
1713488670.6005952,157227.90625,144420.078125,231875.484375,217480.609375,146456.59375,160173.5,133708.671875,142978.84375,0.0
1713488670.6006036,157243.375,144413.46875,231870.21875,217484.0,146450.15625,160168.046875,133706.625,142977.953125,0.0
1713488670.602518,157250.15625,144408.28125,231868.515625,217486.859375,146447.828125,160168.765625,133705.734375,142976.15625,0.0
1713488670.6050892,157227.90625,144408.09375,231859.84375,217470.234375,146444.796875,160168.671875,133699.296875,142966.140625,0.0
1713488670.607567,157217.890625,144419.90625,231858.953125,217460.125,146451.859375,160178.515625,133707.0625,142965.703125,0.0
1713488670.6106477,157236.578125,144427.5,231865.46875,217471.671875,146459.71875,160184.59375,133714.84375,142978.125,0.0
1713488670.6106646,157253.203125,144428.3125,231871.015625,217484.1875,146464.109375,160188.171875,133719.671875,142991.359375,0.0
1713488670.612572,157235.59375,144418.921875,231857.15625,217471.125,146453.203125,160178.953125,133708.5,142980.0,0.0
1713488670.6150725,157215.390625,144420.96875,231848.046875,217459.0625,146451.5,160179.3125,133709.75,142975.265625,0.0
1713488670.64066,157216.546875,144419.28125,231843.390625,217463.078125,146452.125,160182.359375,133714.21875,142977.328125,0.0
1713488670.6406703,157236.390625,144424.015625,231855.375,217482.75,146465.265625,160196.5625,133736.84375,142996.90625,0.0
1713488670.6656375,157234.78125,144426.515625,231857.78125,217478.734375,146466.609375,160196.84375,133728.609375,142986.0,0.0
1713488670.665648,157214.21875,144424.109375,231847.765625,217461.5625,146460.796875,160188.171875,133716.453125,142966.40625,0.0
1713488670.6900716,157210.375,144416.328125,231836.6875,217456.28125,146449.625,160173.859375,133707.6875,142957.5625,0.0
1713488670.71508,157227.8125,144417.046875,231843.75,217472.109375,146452.21875,160172.15625,133711.09375,142968.375,0.0
1713488670.7413814,157222.71875,144418.46875,231845.0,217473.90625,146456.6875,160176.984375,133714.671875,142977.140625,0.0
1713488670.7475448,157200.09375,144421.0625,231837.765625,217459.328125,146459.90625,160180.203125,133716.09375,142979.375,0.0
1713488670.7537973,157185.4375,144417.40625,231825.6875,217448.328125,146455.34375,160176.90625,133711.265625,142973.203125,0.0
1713488670.7563767,157193.03125,144418.109375,231828.1875,217454.59375,146457.578125,160180.75,133711.984375,142980.359375,0.0
1713488670.7587948,157193.65625,144419.8125,231829.625,217455.296875,146460.34375,160181.8125,133711.546875,142987.0625,0.0
1713488670.7613776,157172.203125,144421.59375,231820.0625,217438.5,146460.4375,160182.078125,133715.5625,142985.375,0.0
1713488670.7638044,157157.71875,144423.203125,231807.265625,217428.296875,146457.046875,160180.03125,133715.65625,142983.125,0.0
1713488670.7663565,157180.875,144426.96875,231808.96875,217441.453125,146459.640625,160184.859375,133719.765625,142993.5,0.0
1713488670.7687988,157188.109375,144418.296875,231802.265625,217439.125,146450.6875,160177.96875,133711.1875,142992.078125,0.0
1713488670.771376,157178.28125,144416.59375,231793.765625,217422.40625,146445.859375,160178.59375,133708.234375,142981.4375,0.0
1713488670.7738023,157175.953125,144422.578125,231793.328125,217417.84375,146450.515625,160184.5,133716.453125,142983.765625,0.0
1713488670.7763784,157184.890625,144415.25,231792.875,217425.0,146445.15625,160175.640625,133713.421875,142982.59375,0.0
1713488670.7788055,157200.0,144412.125,231799.765625,217435.546875,146443.265625,160170.734375,133709.03125,142977.046875,0.0
1713488670.7813692,157197.046875,144414.359375,231799.046875,217429.828125,146443.984375,160168.046875,133710.28125,142972.5,0.0
1713488670.7844145,157185.34375,144420.53125,231792.609375,217419.09375,146442.734375,160167.15625,133705.8125,142957.390625,0.0
1713488670.7844274,157190.96875,144425.453125,231791.71875,217428.484375,146446.671875,160174.03125,133713.328125,142960.15625,0.0
1713488670.7863529,157208.671875,144433.5,231803.15625,217445.46875,146462.859375,160192.8125,133736.65625,142982.328125,0.0
1713488670.788797,157193.921875,144432.6875,231796.984375,217433.484375,146464.109375,160196.484375,133726.5625,142971.953125,0.0
1713488670.7913823,157160.578125,144427.0625,231779.015625,217409.265625,146458.203125,160191.203125,133711.984375,142956.21875,0.0
1713488670.7937982,157160.84375,144431.25,231778.484375,217415.96875,146467.234375,160198.625,133724.6875,142974.1875,0.0
1713488670.7963934,157171.3125,144431.609375,231785.546875,217432.234375,146473.3125,160203.09375,133729.421875,142991.625,0.0
1713488670.798787,157161.734375,144428.21875,231780.8125,217424.90625,146471.703125,160199.25,133727.625,142993.859375,0.0
1713488670.80137,157147.609375,144432.6875,231775.359375,217412.203125,146474.921875,160199.703125,133735.234375,142995.828125,0.0
1713488670.803854,157154.046875,144435.90625,231772.21875,217415.078125,146474.65625,160198.984375,133734.78125,143000.03125,0.0
1713488670.806455,157178.546875,144435.109375,231777.234375,217429.5625,146472.859375,160194.6875,133721.734375,143001.46875,0.0
1713488670.811458,157189.546875,144435.90625,231779.375,217433.84375,146473.84375,160193.265625,133723.78125,143007.0,0.0
1713488670.813858,157181.40625,144436.359375,231772.9375,217424.28125,146471.703125,160188.515625,133725.21875,143001.375,0.0
1713488670.8164425,157177.390625,144434.5625,231762.65625,217414.53125,146464.546875,160180.65625,133720.484375,142994.671875,0.0
1713488670.8188362,157188.5625,144424.46875,231755.0625,217412.125,146452.65625,160168.671875,133711.546875,142989.296875,0.0
1713488670.8214343,157189.71875,144417.125,231751.03125,217412.65625,146445.78125,160164.109375,133708.5,142982.859375,0.0
1713488670.8238366,157172.828125,144419.015625,231743.609375,217399.15625,146444.171875,160167.0625,133705.546875,142971.234375,0.0
1713488670.8268237,157160.046875,144417.75,231731.8125,217387.625,146441.390625,160167.609375,133704.125,142966.0625,0.0
1713488670.8268344,157172.640625,144419.640625,231734.578125,217397.71875,146445.59375,160175.734375,133710.90625,142975.53125,0.0
1713488670.8300345,157180.96875,144419.71875,231737.4375,217403.0,146449.078125,160182.71875,133718.78125,142981.703125,0.0
1713488670.8300464,157170.859375,144425.71875,231734.765625,217391.640625,146452.65625,160187.0,133719.234375,142974.734375,0.0
1713488670.830051,157154.765625,144430.0,231727.25,217381.09375,146451.859375,160183.6875,133714.84375,142964.53125,0.0
1713488670.83313,157163.078125,144431.890625,231728.859375,217389.59375,146455.4375,160182.53125,133717.890625,142970.796875,0.0
1713488670.833143,157190.4375,144443.59375,231749.515625,217416.6875,146474.65625,160194.953125,133732.734375,142991.984375,0.0
1713488670.8362792,157188.734375,144443.859375,231749.15625,217416.953125,146479.75,160195.3125,133734.15625,142990.828125,0.0
1713488670.8362904,157173.265625,144436.796875,231734.3125,217399.25,146471.53125,160184.5,133719.3125,142972.5,0.0
1713488670.836295,157188.65625,144436.890625,231731.625,217398.078125,146472.15625,160183.609375,133721.015625,142981.34375,0.0
1713488670.8422368,157217.703125,144438.59375,231739.953125,217414.0,146479.125,160189.78125,133730.3125,143000.484375,0.0
1713488670.8422475,157217.4375,144435.640625,231733.328125,217406.578125,146476.171875,160189.5,133729.0625,143001.640625,0.0
1713488670.842252,157197.046875,144429.734375,231713.296875,217383.0625,146463.828125,160180.390625,133712.96875,142984.921875,0.0
1713488670.8422558,157192.5,144426.515625,231703.203125,217382.34375,146461.515625,160180.125,133720.125,142994.75,0.0
1713488670.8422596,157211.984375,144435.546875,231715.359375,217402.109375,146471.171875,160191.734375,133735.59375,143013.625,0.0
1713488670.843796,157209.65625,144438.234375,231713.484375,217396.296875,146465.171875,160189.0625,133724.0625,143002.0,0.0
1713488670.846418,157188.03125,144438.859375,231700.25,217376.890625,146458.109375,160182.984375,133714.75,142988.046875,0.0
1713488670.8488584,157186.6875,144440.640625,231693.90625,217374.65625,146455.875,160181.015625,133717.34375,142989.296875,0.0
1713488670.8525152,157202.15625,144437.6875,231696.046875,217383.6875,146451.59375,160178.515625,133707.421875,142983.3125,0.0
1713488670.852526,157199.46875,144431.703125,231690.234375,217376.0,146445.78125,160175.296875,133700.453125,142971.0625,0.0
1713488670.8525364,157189.71875,144440.46875,231692.03125,217369.296875,146454.8125,160186.203125,133712.703125,142971.515625,0.0
1713488670.8581276,157185.609375,144443.421875,231688.453125,217368.484375,146458.375,160191.03125,133719.5,142973.296875,0.0
1713488670.858138,157200.8125,144438.59375,231688.1875,217380.296875,146463.125,160194.875,133728.4375,142983.9375,0.0
1713488670.860092,157206.796875,144432.328125,231685.765625,217383.234375,146462.5,160193.34375,133723.15625,142979.109375,0.0
1713488670.8626099,157183.203125,144422.578125,231668.328125,217354.90625,146452.84375,160184.5,133709.84375,142958.546875,0.0
1713488670.8651025,157174.25,144421.953125,231659.5625,217345.609375,146453.546875,160185.84375,133713.78125,142957.203125,0.0
1713488670.8738933,157199.5625,144432.0625,231673.421875,217367.5,146469.46875,160199.78125,133734.875,142980.8125,0.0
1713488670.8806868,157215.5625,144437.609375,231685.140625,217383.6875,146482.34375,160210.96875,133745.78125,142997.265625,0.0
1713488670.8807049,157196.15625,144431.25,231673.34375,217368.046875,146474.203125,160198.796875,133725.21875,142986.078125,0.0
1713488670.8869357,157191.6875,144439.21875,231669.046875,217359.453125,146476.171875,160196.65625,133726.203125,142993.140625,0.0
1713488670.886946,157227.359375,144455.84375,231682.015625,217380.921875,146487.625,160206.765625,133742.203125,143015.9375,0.0
1713488670.8956938,157256.234375,144460.671875,231690.859375,217393.96875,146491.640625,160213.109375,133752.046875,143024.4375,0.0
1713488670.8957038,157248.46875,144457.0,231680.40625,217376.453125,146482.34375,160205.0625,133741.140625,143012.8125,0.0
1713488670.9055748,157218.953125,144442.4375,231654.296875,217344.890625,146459.453125,160179.21875,133709.390625,142987.15625,0.0
1713488670.905583,157222.890625,144437.421875,231647.59375,217346.40625,146456.5,160174.484375,133712.96875,142994.671875,0.0
1713488670.9106936,157243.015625,144439.9375,231657.421875,217363.125,146466.609375,160185.03125,133726.46875,143012.546875,0.0
1713488670.9107013,157235.40625,144439.296875,231652.6875,217356.328125,146466.421875,160185.65625,133719.3125,143004.40625,0.0
1713488670.9125793,157216.28125,144440.90625,231641.6875,217339.703125,146464.546875,160187.359375,133718.0625,142992.15625,0.0
1713488670.9188156,157210.828125,144433.84375,231629.265625,217333.4375,146454.625,160178.953125,133709.484375,142982.328125,0.0
1713488670.9294968,157226.921875,144430.90625,231633.734375,217346.046875,146455.25,160181.453125,133715.109375,142986.703125,0.0
1713488670.9295275,157233.171875,144433.671875,231637.484375,217348.015625,146462.765625,160189.6875,133728.171875,142994.046875,0.0
1713488670.9331882,157222.0,144433.671875,231624.796875,217325.484375,146456.859375,160189.859375,133727.1875,142980.453125,0.0
1713488670.9332173,157214.671875,144424.546875,231603.953125,217304.46875,146437.640625,160174.671875,133703.578125,142954.703125,0.0
1713488670.9431531,157235.671875,144429.828125,231613.078125,217320.921875,146444.25,160179.046875,133709.75,142966.59375,0.0
1713488670.9431944,157233.53125,144429.203125,231615.140625,217321.640625,146448.453125,160183.6875,133719.40625,142968.734375,0.0
1713488670.9705992,157208.234375,144425.71875,231601.90625,217300.890625,146440.234375,160175.734375,133707.515625,142948.171875,0.0
1713488670.970638,157198.03125,144423.296875,231590.453125,217293.390625,146431.46875,160164.828125,133693.5625,142936.109375,0.0
1713488670.9706576,157228.078125,144438.40625,231611.203125,217323.421875,146450.6875,160180.46875,133716.015625,142961.046875,0.0
1713488670.9706748,157253.375,144455.75,231633.640625,217347.03125,146469.296875,160197.375,133730.5,142975.09375,0.0
1713488670.9738524,157240.859375,144455.578125,231627.921875,217338.890625,146468.578125,160193.171875,133719.40625,142970.078125,0.0
1713488670.973876,157233.265625,144457.8125,231620.859375,217335.671875,146475.640625,160197.46875,133728.796875,142986.890625,0.0
1713488670.9738863,157244.4375,144453.78125,231614.515625,217335.234375,146476.171875,160197.015625,133731.203125,143001.90625,0.0
1713488670.9770248,157241.484375,144439.296875,231602.890625,217325.125,146460.96875,160182.984375,133712.96875,142996.28125,0.0
1713488670.9770358,157222.09375,144431.25,231588.578125,217306.0,146454.1875,160176.546875,133710.46875,142993.140625,0.0
1713488670.9788487,157214.9375,144434.65625,231579.375,217293.828125,146456.5,160179.84375,133719.140625,142995.296875,0.0
1713488670.9851096,157237.203125,144443.421875,231589.03125,217314.75,146464.46875,160186.203125,133723.34375,143003.15625,0.0
1713488671.010739,157256.421875,144449.140625,231601.546875,217334.25,146471.875,160193.34375,133736.125,143016.390625,0.0
1713488671.0107677,157243.28125,144445.921875,231591.703125,217313.328125,146463.484375,160187.71875,133729.15625,143001.90625,0.0
1713488671.0375311,157222.09375,144442.609375,231575.96875,217290.96875,146454.53125,160179.5,133713.328125,142984.5625,0.0
1713488671.0375607,157225.671875,144441.265625,231569.09375,217292.578125,146452.578125,160178.234375,133710.46875,142983.21875,0.0
1713488671.0375738,157238.625,144437.0625,231568.90625,217300.984375,146451.9375,160179.140625,133713.15625,142989.75,0.0
1713488671.061478,157227.8125,144431.078125,231559.96875,217288.828125,146445.328125,160175.46875,133706.4375,142977.671875,0.0
1713488671.0865428,157202.859375,144429.734375,231548.890625,217269.34375,146443.1875,160174.125,133704.828125,142964.265625,0.0
1713488671.1114924,157196.078125,144426.78125,231541.375,217266.484375,146441.484375,160173.40625,133704.921875,142959.890625,0.0
1713488671.1388795,157212.875,144428.84375,231547.8125,217282.03125,146447.65625,160180.828125,133714.3125,142967.578125,0.0
1713488671.143868,157214.9375,144431.4375,231549.515625,217283.90625,146450.328125,160185.484375,133717.96875,142965.96875,0.0
1713488671.1463633,157197.6875,144430.8125,231540.125,217268.265625,146446.9375,160182.078125,133712.078125,142951.390625,0.0
1713488671.1488647,157198.578125,144431.796875,231534.84375,217266.75,146443.71875,160178.953125,133708.046875,142944.234375,0.0
1713488671.1514556,157214.40625,144426.96875,231536.453125,217271.9375,146441.578125,160175.375,133704.390625,142946.75,0.0
1713488671.1538196,157219.40625,144421.15625,231535.109375,217271.484375,146437.1875,160166.890625,133698.125,142945.5,0.0
1713488671.1564631,157204.75,144427.0625,231531.359375,217260.9375,146439.96875,160166.96875,133698.671875,142940.21875,0.0
1713488671.1587903,157199.640625,144440.46875,231532.703125,217264.328125,146450.328125,160178.0625,133708.5,142945.140625,0.0
1713488671.16146,157210.015625,144445.5625,231539.59375,217282.65625,146460.171875,160186.28125,133718.15625,142968.109375,0.0
1713488671.163774,157215.390625,144444.84375,231542.71875,217289.71875,146465.625,160190.046875,133722.984375,142987.875,0.0
1713488671.1664112,157208.40625,144448.6875,231538.25,217279.53125,146468.390625,160191.921875,133721.109375,142994.75,0.0
1713488671.1714578,157189.453125,144443.78125,231522.59375,217266.203125,146462.765625,160185.484375,133717.96875,142994.3125,0.0
1713488671.1738968,157198.03125,144442.609375,231522.421875,217272.28125,146466.25,160188.4375,133730.40625,143011.46875,0.0
1713488671.176339,157202.59375,144430.984375,231517.859375,217266.75,146457.671875,160178.78125,133720.296875,143003.703125,0.0
1713488671.17882,157186.5,144427.328125,231510.34375,217253.953125,146452.578125,160174.84375,133714.75,142990.46875,0.0
1713488671.1813924,157170.140625,144429.296875,231498.546875,217239.46875,146448.09375,160173.0625,133713.59375,142979.90625,0.0
1713488671.1838143,157172.828125,144421.59375,231485.5,217234.203125,146433.265625,160162.0625,133698.21875,142962.84375,0.0
1713488671.186407,157192.765625,144423.84375,231492.375,217244.03125,146434.234375,160167.328125,133702.953125,142964.453125,0.0
1713488671.1887684,157202.59375,144441.265625,231505.796875,217252.34375,146453.734375,160188.703125,133731.296875,142983.671875,0.0
1713488671.191403,157175.953125,144433.21875,231488.4375,217230.796875,146444.875,160183.15625,133721.90625,142968.296875,0.0
1713488671.193818,157169.0625,144423.65625,231476.546875,217227.671875,146434.234375,160175.921875,133705.8125,142952.46875,0.0
1713488671.1963625,157183.109375,144429.46875,231488.890625,217243.40625,146443.0,160186.828125,133715.5625,142960.875,0.0
1713488671.198817,157184.265625,144440.828125,231497.296875,217246.625,146452.84375,160196.125,133718.78125,142958.546875,0.0
1713488671.2014015,157169.0625,144447.625,231494.25,217235.28125,146457.9375,160198.09375,133718.421875,142953.453125,0.0
1713488671.2038195,157168.625,144443.234375,231484.328125,217231.078125,146453.28125,160189.6875,133711.453125,142950.40625,0.0
1713488671.2064157,157190.53125,144441.8125,231488.984375,217247.4375,146457.125,160187.265625,133713.328125,142964.265625,0.0
1713488671.2087693,157204.5625,144453.4375,231504.0,217264.78125,146473.140625,160196.5625,133726.109375,142980.0,0.0
1713488671.2113488,157185.34375,144457.453125,231498.90625,217243.859375,146473.140625,160193.625,133722.796875,142966.953125,0.0
1713488671.2137988,157179.171875,144457.09375,231490.140625,217236.96875,146465.984375,160184.765625,133709.484375,142953.453125,0.0
1713488671.2163515,157201.25,144459.234375,231496.21875,217252.890625,146471.25,160189.953125,133717.265625,142964.984375,0.0
1713488671.2259681,157207.515625,144456.5625,231495.15625,217253.515625,146469.5625,160189.859375,133717.796875,142973.65625,0.0
1713488671.2259903,157186.328125,144448.25,231480.046875,217235.90625,146459.09375,160179.84375,133710.90625,142968.46875,0.0
1713488671.226,157175.421875,144444.671875,231467.96875,217227.5,146452.75,160176.28125,133711.890625,142971.953125,0.0
1713488671.2260065,157193.03125,144443.0625,231469.140625,217236.078125,146454.984375,160182.265625,133722.796875,142989.84375,0.0
1713488671.2260127,157190.796875,144434.03125,231461.53125,217233.578125,146451.3125,160181.375,133723.15625,142995.828125,0.0
1713488671.2260225,157166.828125,144433.40625,231452.234375,217217.03125,146449.890625,160182.359375,133720.21875,142989.84375,0.0
1713488671.2260284,157142.96875,144427.953125,231435.875,217196.203125,146440.59375,160176.546875,133712.96875,142976.25,0.0
1713488671.2260349,157148.78125,144424.109375,231431.5,217198.4375,146434.0625,160171.796875,133702.15625,142966.234375,0.0
1713488671.2260416,157171.125,144437.609375,231449.015625,217219.8125,146449.625,160188.96875,133714.21875,142978.484375,0.0
1713488671.2260475,157159.0625,144442.609375,231448.296875,217214.625,146454.71875,160194.421875,133718.0625,142975.796875,0.0
1713488671.228711,157140.109375,144444.3125,231437.9375,217200.9375,146454.8125,160193.078125,133719.5,142969.90625,0.0
1713488671.2287278,157145.46875,144440.375,231430.59375,217202.28125,146455.15625,160190.3125,133722.796875,142974.1875,0.0
1713488671.2287362,157169.0625,144440.734375,231441.421875,217225.890625,146464.90625,160196.65625,133734.609375,142989.5625,0.0
1713488671.2330651,157178.90625,144451.015625,231452.6875,217233.390625,146478.140625,160206.40625,133742.734375,142996.8125,0.0
1713488671.233076,157165.765625,144453.78125,231444.1875,217210.59375,146476.984375,160203.09375,133737.921875,142988.234375,0.0
1713488671.2330804,157168.796875,144447.625,231434.265625,217207.828125,146468.578125,160190.578125,133727.453125,142984.5625,0.0
1713488671.2330854,157183.640625,144443.234375,231434.71875,217216.59375,146464.375,160184.59375,133723.609375,142983.3125,0.0
1713488671.235655,157185.15625,144445.734375,231434.796875,217213.015625,146462.21875,160181.90625,133715.5625,142970.078125,0.0
1713488671.235664,157161.46875,144443.953125,231421.75,217192.0,146452.125,160173.328125,133698.671875,142945.140625,0.0
1713488671.2387273,157156.015625,144442.4375,231413.34375,217187.796875,146448.375,160171.984375,133699.734375,142946.46875,0.0
1713488671.2387412,157171.390625,144441.265625,231417.359375,217200.046875,146452.578125,160178.515625,133711.625,142966.5,0.0
1713488671.2387457,157173.0,144441.546875,231414.328125,217198.4375,146454.53125,160184.328125,133721.375,142981.078125,0.0
1713488671.241381,157151.375,144437.515625,231398.234375,217174.5625,146447.03125,160178.328125,133714.125,142974.546875,0.0
1713488671.243817,157154.59375,144438.140625,231391.078125,217168.484375,146443.8125,160176.90625,133705.375,142972.40625,0.0
1713488671.246373,157187.40625,144441.09375,231399.671875,217186.375,146450.515625,160185.390625,133714.578125,142988.9375,0.0
1713488671.248788,157202.78125,144441.359375,231405.03125,217195.84375,146457.046875,160190.765625,133722.53125,142999.40625,0.0
1713488671.2513745,157192.5,144443.5,231401.625,217186.453125,146463.75,160196.84375,133735.40625,143003.25,0.0
1713488671.253806,157177.390625,144440.203125,231390.015625,217175.453125,146459.1875,160192.640625,133728.4375,142990.90625,0.0
1713488671.256362,157186.421875,144437.34375,231390.359375,217186.640625,146460.96875,160191.03125,133724.953125,142995.375,0.0
1713488671.263124,157200.8125,144445.390625,231400.828125,217197.1875,146473.765625,160202.015625,133739.875,143010.765625,0.0
1713488671.2631404,157184.71875,144447.703125,231395.1875,217185.03125,146475.8125,160201.578125,133739.4375,143003.78125,0.0
1713488671.2706065,157168.625,144447.171875,231387.0625,217175.734375,146474.203125,160194.328125,133733.4375,142994.9375,0.0
1713488671.2706356,157176.765625,144445.734375,231388.046875,217186.09375,146476.0,160193.265625,133735.953125,142998.6875,0.0
1713488671.2769158,157183.640625,144436.796875,231385.09375,217188.6875,146468.84375,160182.53125,133724.328125,142993.328125,0.0
1713488671.2769423,157176.40625,144435.453125,231378.203125,217177.421875,146463.75,160175.828125,133714.40625,142982.421875,0.0
1713488671.2868989,157171.03125,144443.15625,231376.6875,217169.828125,146467.328125,160178.15625,133718.421875,142979.640625,0.0
1713488671.28692,157182.03125,144444.046875,231376.59375,217175.1875,146465.71875,160176.71875,133720.484375,142978.296875,0.0
1713488671.2893963,157193.484375,144437.6875,231373.5625,217176.171875,146457.84375,160172.421875,133710.015625,142968.109375,0.0
1713488671.289408,157184.453125,144433.140625,231358.359375,217154.453125,146445.78125,160167.421875,133695.265625,142944.15625,0.0
1713488671.3001103,157172.28125,144431.4375,231344.859375,217136.75,146438.265625,160161.96875,133685.25,142932.625,0.0
1713488671.3069904,157186.953125,144434.5625,231343.875,217143.09375,146442.734375,160168.3125,133696.421875,142953.359375,0.0
1713488671.307006,157211.984375,144439.65625,231352.71875,217162.5,146456.328125,160185.03125,133714.578125,142984.390625,0.0
1713488671.3107271,157205.546875,144439.65625,231347.09375,217157.578125,146459.09375,160192.09375,133724.0625,142994.046875,0.0
1713488671.3107457,157186.5,144443.15625,231338.6875,217145.234375,146460.53125,160195.671875,133735.234375,142993.765625,0.0
1713488671.3188813,157189.015625,144445.296875,231334.046875,217147.5625,146459.1875,160195.9375,133734.609375,142993.953125,0.0
1713488671.329471,157203.765625,144436.0,231329.921875,217147.125,146450.15625,160185.390625,133716.640625,142989.84375,0.0
1713488671.329486,157209.296875,144434.125,231330.734375,217148.90625,146455.15625,160186.375,133728.53125,143002.359375,0.0
1713488671.3357391,157195.53125,144434.828125,231324.734375,217136.84375,146456.765625,160184.953125,133723.875,142990.015625,0.0
1713488671.3357508,157192.859375,144433.5,231319.015625,217132.71875,146453.015625,160177.796875,133709.125,142975.71875,0.0
1713488671.3376768,157217.96875,144431.34375,231325.28125,217147.46875,146457.84375,160179.5,133716.640625,142985.546875,0.0
1713488671.3415372,157237.015625,144429.5625,231329.484375,217154.09375,146464.375,160185.125,133728.96875,142990.46875,0.0
1713488671.3520317,157227.625,144428.390625,231320.625,217138.53125,146463.75,160182.625,133726.375,142978.9375,0.0
1713488671.352042,157224.953125,144429.375,231310.96875,217130.578125,146461.0625,160176.546875,133718.609375,142973.921875,0.0
1713488671.3769891,157251.59375,144435.453125,231318.578125,217147.03125,146464.46875,160178.78125,133718.25,142977.046875,0.0
1713488671.3770063,157267.78125,144442.078125,231326.890625,217157.3125,146468.84375,160183.875,133719.9375,142980.09375,0.0
1713488671.4270024,157247.65625,144443.859375,231318.578125,217142.109375,146466.609375,160181.90625,133717.796875,142970.96875,0.0
1713488671.4270551,157231.203125,144447.34375,231310.703125,217132.1875,146465.984375,160182.359375,133715.734375,142966.6875,0.0
1713488671.481211,157240.0625,144444.40625,231307.9375,217133.171875,146461.59375,160180.46875,133708.953125,142961.578125,0.0
1713488671.4812212,157242.203125,144430.625,231298.015625,217124.765625,146446.671875,160169.125,133698.9375,142947.546875,0.0
1713488671.4812264,157238.0,144434.03125,231295.59375,217117.609375,146446.671875,160170.734375,133702.421875,142943.609375,0.0
1713488671.5069416,157229.421875,144438.671875,231291.21875,217108.046875,146448.28125,160175.109375,133697.6875,142935.296875,0.0
1713488671.5069733,157241.765625,144432.421875,231286.828125,217111.71875,146447.921875,160175.203125,133700.90625,142948.171875,0.0
1713488671.5151963,157264.46875,144426.96875,231290.765625,217124.671875,146455.15625,160181.734375,133715.390625,142972.578125,0.0
1713488671.5176504,157254.71875,144420.265625,231282.359375,217114.21875,146455.609375,160183.875,133722.359375,142981.609375,0.0
1713488671.520211,157231.390625,144415.609375,231266.890625,217094.375,146449.359375,160178.6875,133715.65625,142975.890625,0.0
1713488671.5227108,157229.234375,144407.5625,231254.203125,217090.171875,146439.34375,160168.671875,133706.265625,142972.5,0.0
1713488671.5251892,157237.203125,144405.0625,231256.96875,217102.6875,146439.421875,160166.078125,133705.734375,142982.15625,0.0
1713488671.5276303,157226.46875,144407.5625,231255.625,217100.625,146439.34375,160165.28125,133705.1875,142979.90625,0.0
1713488671.5307114,157219.9375,144425.171875,231262.328125,217098.125,146450.0625,160175.375,133716.546875,142981.171875,0.0
1713488671.5307393,157231.203125,144437.0625,231265.203125,217103.671875,146457.125,160181.375,133722.890625,142985.28125,0.0
1713488671.5325336,157250.25,144438.765625,231268.140625,217114.9375,146459.984375,160184.046875,133727.28125,142995.109375,0.0
1713488671.5350385,157241.484375,144429.296875,231257.953125,217106.171875,146452.125,160174.3125,133720.296875,142988.9375,0.0
1713488671.537562,157220.75,144431.25,231251.0625,217091.59375,146453.828125,160175.828125,133726.375,142981.703125,0.0
1713488671.5400453,157214.671875,144436.171875,231247.671875,217090.078125,146454.71875,160176.71875,133723.078125,142975.890625,0.0
1713488671.5426383,157224.140625,144433.3125,231248.5625,217094.71875,146454.09375,160175.203125,133725.046875,142981.703125,0.0
1713488671.5451288,157225.578125,144422.5,231241.140625,217084.53125,146446.046875,160166.265625,133716.8125,142970.171875,0.0
1713488671.547615,157214.3125,144428.03125,231238.28125,217071.5625,146448.546875,160168.859375,133709.9375,142958.453125,0.0
1713488671.5501182,157201.703125,144430.8125,231231.3125,217063.875,146449.359375,160171.09375,133709.9375,142952.828125,0.0
1713488671.552666,157209.03125,144426.875,231227.46875,217068.34375,146444.4375,160169.203125,133702.515625,142949.515625,0.0
1713488671.5551252,157211.625,144421.15625,231223.984375,217068.984375,146436.75,160163.125,133690.796875,142941.734375,0.0
1713488671.5576468,157189.1875,144415.96875,231212.625,217054.140625,146432.984375,160163.671875,133691.6875,142931.453125,0.0
1713488671.5600863,157169.0625,144413.90625,231201.0,217040.28125,146428.78125,160162.421875,133688.03125,142919.390625,0.0
1713488671.5625415,157171.9375,144410.515625,231197.15625,217044.296875,146426.734375,160159.90625,133689.359375,142922.78125,0.0
1713488671.565065,157181.3125,144412.65625,231204.046875,217056.109375,146434.234375,160168.140625,133701.609375,142940.3125,0.0
1713488671.5675745,157172.5625,144417.578125,231203.859375,217049.3125,146440.59375,160172.421875,133708.765625,142951.75,0.0
1713488671.5700626,157163.171875,144422.765625,231201.09375,217040.90625,146445.421875,160173.0625,133710.734375,142960.875,0.0
1713488671.5725465,157174.4375,144424.109375,231201.71875,217050.5625,146451.234375,160176.28125,133716.90625,142979.640625,0.0
1713488671.5750277,157188.828125,144419.90625,231202.25,217054.21875,146452.75,160177.4375,133721.109375,142993.328125,0.0
1713488671.5814805,157194.90625,144418.46875,231198.3125,217052.96875,146452.484375,160174.21875,133720.125,142991.984375,0.0
1713488671.5838823,157192.9375,144419.8125,231190.90625,217044.484375,146452.125,160171.0,133716.453125,142984.65625,0.0
1713488671.5864573,157211.53125,144422.140625,231189.46875,217050.921875,146453.828125,160171.265625,133714.9375,142984.03125,0.0
1713488671.5887806,157236.578125,144424.546875,231198.3125,217068.890625,146463.828125,160182.265625,133734.78125,143000.203125,0.0
1713488671.5913873,157235.859375,144426.15625,231200.5625,217069.953125,146466.609375,160184.5,133739.875,142998.25,0.0
