timestamps,Fz,C3,Cz,C4,Pz,PO7,Oz,PO8,stim
1713490185.3979657,150911.03125,151826.203125,190650.015625,227913.6875,154267.359375,156495.65625,135605.453125,140501.1875,0.0
1713490185.4010491,150915.140625,151842.828125,190640.265625,227966.609375,154330.21875,156508.359375,135719.078125,140514.875,0.0
1713490185.4010599,150912.640625,151844.34375,190632.5,227960.171875,154333.34375,156508.4375,135744.390625,140512.8125,0.0
1713490185.4030423,150911.46875,151829.421875,190639.015625,227906.53125,154285.96875,156507.453125,135656.140625,140506.5625,0.0
1713490185.411837,150894.125,151803.9375,190627.390625,227883.28125,154247.15625,156491.359375,135589.359375,140492.96875,0.0
1713490185.4142811,150896.015625,151822.984375,190616.21875,227925.3125,154301.609375,156499.328125,135685.46875,140500.03125,0.0
1713490185.4186091,150905.84375,151843.453125,190620.421875,227951.859375,154334.78125,156515.234375,135755.46875,140516.390625,0.0
1713490185.4186199,150899.859375,151830.484375,190621.5,227887.671875,154287.75,156510.859375,135676.34375,140504.0625,0.0
1713490185.4242532,150911.203125,151823.0625,190638.484375,227883.46875,154260.84375,156510.40625,135606.078125,140507.625,0.0
1713490185.4280334,150919.25,151843.28125,190636.078125,227929.59375,154314.578125,156523.1875,135693.25,140530.96875,0.0
1713490185.4436097,150924.171875,151860.359375,190628.46875,227943.90625,154342.203125,156526.40625,135763.609375,140520.78125,0.0
1713490185.44362,150909.234375,151837.546875,190622.921875,227889.28125,154301.515625,156517.828125,135700.125,140512.734375,0.0
1713490185.4547749,150891.984375,151800.265625,190614.796875,227837.15625,154246.453125,156495.5625,135597.9375,140499.140625,0.0
1713490185.4547884,150904.765625,151823.25,190621.3125,227890.4375,154295.984375,156508.625,135664.640625,140519.796875,0.0
1713490185.456734,150917.109375,151851.859375,190620.25,227932.734375,154350.15625,156528.296875,135767.28125,140536.328125,0.0
1713490185.4597242,150905.84375,151836.390625,190611.65625,227881.40625,154313.671875,156517.734375,135717.65625,140520.15625,0.0
1713490185.4597375,150877.234375,151793.296875,190596.828125,227815.96875,154242.421875,156488.328125,135600.53125,140492.96875,0.0
1713490185.4635088,150901.46875,151816.453125,190618.640625,227879.0,154283.375,156509.0625,135645.6875,140520.328125,0.0
1713490185.4635248,150900.296875,151836.21875,190602.1875,227911.453125,154336.65625,156518.984375,135754.046875,140529.8125,0.0
1713490185.4911273,150868.828125,151802.234375,190570.71875,227838.40625,154294.90625,156496.015625,135715.328125,140502.0,0.0
1713490185.491149,150870.265625,151792.765625,190586.09375,227794.59375,154248.859375,156493.875,135618.234375,140498.421875,0.0
1713490185.5185184,150880.1875,151802.421875,190596.375,227823.828125,154259.140625,156500.21875,135622.703125,140505.75,0.0
1713490185.5185359,150873.484375,151815.734375,190574.46875,227862.984375,154306.890625,156498.515625,135723.375,140506.015625,0.0
1713490185.5185404,150877.953125,151824.40625,190573.484375,227845.828125,154306.609375,156507.90625,135735.4375,140509.78125,0.0
1713490185.518545,150871.59375,151802.0625,190578.046875,227786.015625,154254.9375,156503.171875,135635.75,140501.109375,0.0
1713490185.5385845,150857.296875,151781.859375,190570.265625,227780.46875,154235.890625,156487.78125,135596.5,140497.625,0.0
1713490185.5385952,150869.0,151810.90625,190568.5625,227842.703125,154304.5625,156504.953125,135711.21875,140515.046875,0.0
1713490185.540467,150879.203125,151830.125,190574.109375,227846.625,154323.515625,156522.75,135755.828125,140526.59375,0.0
1713490185.543043,150875.4375,151818.328125,190582.875,227790.578125,154278.09375,156518.71875,135665.171875,140518.359375,0.0
1713490185.5455418,150872.578125,151803.046875,190585.5625,227780.828125,154248.140625,156506.828125,135600.796875,140515.234375,0.0
1713490185.5480175,150873.921875,151814.75,190570.796875,227825.359375,154296.609375,156512.109375,135697.71875,140512.28125,0.0
1713490185.5505395,150875.171875,151823.609375,190562.3125,227832.953125,154317.96875,156521.046875,135757.890625,140518.453125,0.0
1713490185.5554397,150867.9375,151811.171875,190561.421875,227766.796875,154268.890625,156514.171875,135673.578125,140502.265625,0.0
1713490185.5580084,150862.125,151792.578125,190563.46875,227736.65625,154227.578125,156498.703125,135593.109375,140495.03125,0.0
1713490185.560473,150863.015625,151799.28125,190554.0,227788.15625,154274.25,156500.578125,135672.59375,140507.90625,0.0
1713490185.5630088,150856.765625,151806.796875,190535.046875,227795.40625,154298.921875,156498.609375,135745.8125,140508.34375,0.0
1713490185.5654545,150874.015625,151815.921875,190554.53125,227760.703125,154277.296875,156508.53125,135696.203125,140513.171875,0.0
1713490185.5679293,150872.5,151809.125,190565.53125,227735.046875,154237.328125,156505.84375,135608.9375,140513.0,0.0
1713490185.5704784,150852.28125,151792.84375,190542.28125,227762.765625,154256.09375,156494.5,135645.5,140507.0,0.0
1713490185.5735264,150852.46875,151806.0,190528.421875,227780.640625,154296.609375,156501.203125,135739.921875,140509.59375,0.0
1713490185.5735357,150851.578125,151798.75,190530.484375,227746.765625,154269.875,156497.53125,135700.484375,140502.890625,0.0
1713490185.5760117,150835.390625,151769.15625,190520.5625,227678.09375,154207.109375,156481.078125,135589.796875,140481.703125,0.0
1713490185.5760212,150847.375,151780.25,190524.578125,227718.421875,154236.15625,156490.828125,135625.5625,140504.328125,0.0
1713490185.577978,150856.9375,151804.03125,190519.03125,227763.21875,154291.0625,156501.015625,135732.21875,140511.125,0.0
1713490185.58047,150851.84375,151802.78125,190520.828125,227732.453125,154275.234375,156502.90625,135715.421875,140505.578125,0.0
1713490185.5836027,150859.34375,151787.9375,190532.0,227685.78125,154226.0625,156496.46875,135615.640625,140504.953125,0.0
1713490185.5836165,150880.1875,151793.203125,190536.203125,227710.015625,154236.703125,156501.203125,135621.1875,140514.6875,0.0
1713490185.5860133,150877.859375,151803.671875,190514.921875,227746.046875,154286.40625,156502.265625,135723.28125,140512.375,0.0
1713490185.5860288,150888.40625,151811.625,190520.015625,227736.65625,154288.109375,156508.4375,135735.09375,140514.609375,0.0
1713490185.5880506,150876.609375,151777.296875,190511.96875,227669.0625,154222.390625,156487.15625,135620.921875,140494.3125,0.0
1713490185.5948632,150878.9375,151769.328125,190511.171875,227675.6875,154210.859375,156485.109375,135595.796875,140500.21875,0.0
1713490185.5948749,150893.421875,151797.046875,190502.40625,227727.453125,154271.921875,156497.984375,135709.15625,140511.921875,0.0
1713490185.6018624,150899.234375,151797.234375,190497.9375,227717.265625,154274.703125,156492.703125,135729.71875,140506.921875,0.0
1713490185.6059704,150908.171875,151788.296875,190511.796875,227663.53125,154234.109375,156493.875,135643.265625,140503.515625,0.0
1713490185.605981,150913.0,151782.03125,190517.421875,227658.34375,154213.640625,156490.203125,135593.828125,140509.328125,0.0
1713490185.6078987,150916.484375,151796.15625,190507.59375,227712.4375,154268.078125,156496.734375,135691.8125,140523.09375,0.0
1713490185.6166651,150931.953125,151818.515625,190515.375,227735.234375,154301.96875,156514.078125,135757.171875,140534.0,0.0
1713490185.6247551,150934.0,151810.90625,190525.203125,227684.984375,154265.40625,156521.046875,135688.234375,140528.28125,0.0
1713490185.6247623,150925.609375,151786.140625,190521.09375,227652.34375,154217.75,156497.171875,135596.6875,140514.78125,0.0
1713490185.6267297,150935.25,151800.53125,190513.21875,227701.515625,154262.1875,156498.78125,135670.09375,140522.5625,0.0
1713490185.634225,150945.0,151820.75,190511.890625,227728.53125,154302.234375,156513.8125,135758.59375,140535.96875,0.0
1713490185.641,150935.609375,151808.046875,190513.671875,227673.984375,154266.296875,156511.921875,135700.21875,140528.828125,0.0
1713490185.6410065,150935.796875,151797.5,190528.875,227648.765625,154230.984375,156510.3125,135614.828125,140529.265625,0.0
1713490185.6485562,150935.96875,151804.921875,190523.234375,227690.265625,154263.25,156510.765625,135665.796875,140536.59375,0.0
1713490185.648571,150949.46875,151828.515625,190518.859375,227729.59375,154311.171875,156526.5,135767.0,140549.75,0.0
1713490185.6503959,150953.5,151823.6875,190519.9375,227687.578125,154281.9375,156524.0,135724.890625,140541.609375,0.0
1713490185.7018173,150940.796875,151796.34375,190516.890625,227629.28125,154221.140625,156506.921875,135614.03125,140524.265625,0.0
1713490185.7047603,150933.734375,151794.375,190510.1875,227657.796875,154240.28125,156504.78125,135639.15625,140527.484375,0.0
1713490185.704781,150936.953125,151820.75,190506.78125,227707.515625,154302.5,156521.046875,135754.75,140543.390625,0.0
1713490185.70671,150939.109375,151823.6875,190512.0625,227680.78125,154289.984375,156524.890625,135742.0625,140544.5625,0.0
1713490185.7103367,150930.34375,151794.8125,190510.09375,227616.9375,154225.796875,156504.515625,135626.8125,140522.03125,0.0
1713490185.7103443,150933.5625,151790.703125,190509.65625,227636.609375,154226.5,156498.078125,135618.140625,140519.171875,0.0
1713490185.7103488,150941.78125,151806.890625,190498.03125,227689.09375,154284.359375,156504.59375,135732.3125,140531.6875,0.0
1713490185.7129102,150944.828125,151807.609375,190495.875,227670.953125,154276.046875,156504.953125,135736.609375,140529.0,0.0
1713490185.7171829,150963.15625,151808.40625,190520.28125,227624.90625,154239.375,156508.625,135648.8125,140532.578125,0.0
1713490185.7172005,150957.078125,151793.65625,190513.578125,227622.21875,154220.25,156493.421875,135609.5625,140526.234375,0.0
1713490185.7172115,150948.3125,151802.59375,190492.578125,227665.140625,154272.640625,156496.015625,135713.890625,140531.234375,0.0
1713490185.7172177,150952.609375,151813.765625,190493.375,227660.390625,154284.53125,156506.390625,135749.296875,140534.90625,0.0
1713490185.720349,150971.828125,151824.328125,190519.65625,227618.640625,154253.328125,156522.03125,135674.828125,140540.09375,0.0
1713490185.7203662,150990.0625,151828.96875,190539.0625,227628.65625,154243.046875,156534.109375,135634.0625,140550.546875,0.0
1713490185.720373,150972.890625,151817.890625,190505.625,227665.046875,154273.359375,156508.625,135699.234375,140538.65625,0.0
1713490185.7234943,150940.796875,151795.53125,190463.78125,227629.1875,154261.90625,156482.15625,135727.21875,140517.90625,0.0
1713490185.7235007,150929.984375,151773.8125,190460.390625,227572.953125,154211.9375,156466.515625,135643.265625,140502.265625,0.0
1713490185.7254117,150943.484375,151778.015625,190482.828125,227560.703125,154191.015625,156479.03125,135585.15625,140503.15625,0.0
1713490185.7279024,150926.765625,151776.84375,190458.859375,227588.0625,154223.828125,156469.28125,135649.96875,140500.484375,0.0
1713490185.730428,150951.984375,151811.53125,190471.65625,227628.5625,154275.859375,156498.96875,135747.515625,140525.953125,0.0
1713490185.7379417,150939.375,151786.5,190463.0625,227580.734375,154230.703125,156481.703125,135679.828125,140512.8125,0.0
1713490185.7485306,150881.4375,151708.984375,190412.640625,227483.546875,154131.109375,156414.125,135531.0625,140453.359375,0.0
1713490185.7485468,150888.234375,151724.09375,190409.0625,227527.71875,154171.875,156424.3125,135591.140625,140464.8125,0.0
1713490185.756698,150923.90625,151778.546875,190434.453125,227596.46875,154253.59375,156468.390625,135721.765625,140513.71875,0.0
1713490185.756724,150930.34375,151783.640625,190445.8125,227560.078125,154232.140625,156475.8125,135683.046875,140499.9375,0.0
1713490185.7567377,150932.21875,151777.5625,190464.046875,227529.953125,154198.078125,156492.53125,135606.875,140509.6875,0.0
1713490185.762904,150925.15625,151765.484375,190446.078125,227548.546875,154205.5,156475.984375,135618.140625,140507.90625,0.0
1713490185.7654285,150915.671875,151763.796875,190417.109375,227573.3125,154238.75,156463.109375,135704.234375,140501.1875,0.0
1713490185.7679203,150882.859375,151731.78125,190385.828125,227510.015625,154188.78125,156433.78125,135655.6875,140466.6875,0.0
1713490185.7717297,150885.90625,151726.421875,190404.0625,227466.46875,154149.078125,156439.15625,135564.5,140467.40625,0.0
1713490185.781722,150892.609375,151730.53125,190410.5,227495.890625,154162.3125,156448.0,135573.53125,140482.15625,0.0
1713490185.7847643,150911.5625,151760.21875,190411.84375,227557.84375,154234.375,156467.5,135698.078125,140509.59375,0.0
1713490185.7847793,150923.8125,151774.25,190420.78125,227550.0625,154244.296875,156479.03125,135717.921875,140519.96875,0.0
1713490185.7879438,150930.078125,151770.859375,190436.875,227501.703125,154203.0,156484.390625,135630.578125,140518.890625,0.0
1713490185.794778,150941.15625,151777.828125,190453.234375,227522.796875,154205.9375,156494.578125,135614.125,140538.03125,0.0
1713490185.79479,150922.390625,151782.125,190424.0,227553.734375,154252.171875,156490.109375,135710.671875,140532.125,0.0
1713490185.8004308,150930.875,151794.28125,190426.40625,227557.21875,154267.359375,156502.8125,135749.296875,140540.171875,0.0
1713490185.8073003,150918.453125,151766.203125,190419.703125,227489.359375,154204.609375,156483.59375,135646.390625,140520.0625,0.0
1713490185.8073113,150895.109375,151736.96875,190404.0625,227462.8125,154161.328125,156460.34375,135575.5,140502.890625,0.0
1713490185.8130336,150891.453125,151750.734375,190389.578125,227512.25,154215.25,156468.484375,135673.390625,140511.921875,0.0
1713490185.8197858,150884.390625,151751.71875,190375.453125,227515.203125,154230.4375,156469.1875,135724.09375,140510.046875,0.0
1713490185.8197973,150891.1875,151751.8125,190389.3125,227460.03125,154193.78125,156471.25,135642.734375,140497.625,0.0
1713490185.8297946,150890.015625,151737.6875,190395.921875,227438.484375,154158.46875,156468.390625,135569.0625,140494.40625,0.0
1713490185.829815,150884.03125,151742.328125,190380.28125,227483.734375,154197.890625,156468.828125,135644.34375,140497.703125,0.0
1713490185.83177,150891.984375,151761.015625,190374.734375,227499.828125,154230.078125,156469.109375,135716.765625,140501.90625,0.0
1713490185.8568256,150880.1875,151739.921875,190368.296875,227443.140625,154182.875,156451.125,135642.734375,140486.4375,0.0
1713490185.908052,150887.96875,151729.734375,190382.609375,227419.0,154147.734375,156448.0,135562.625,140494.671875,0.0
1713490185.9343183,150891.984375,151742.953125,190378.578125,227463.171875,154186.546875,156459.0,135625.296875,140509.15625,0.0
1713490185.9593365,150879.203125,151739.65625,190352.203125,227491.59375,154213.71875,156447.90625,135698.703125,140506.5625,0.0
1713490185.979452,150858.546875,151713.90625,190333.34375,227420.875,154167.046875,156426.453125,135641.484375,140480.359375,0.0
1713490185.98185,150862.296875,151703.359375,190345.859375,227371.703125,154121.0,156425.03125,135545.984375,140467.578125,0.0
1713490185.9843197,150893.953125,151735.984375,190373.390625,227438.390625,154173.125,156457.390625,135603.484375,140504.6875,0.0
1713490185.9873295,150896.546875,151756.90625,190362.75,227478.984375,154228.46875,156472.5,135715.78125,140518.625,0.0
1713490185.987342,150886.171875,151743.59375,190353.71875,227444.5625,154206.5625,156462.125,135695.5625,140513.4375,0.0
1713490185.9892976,150878.21875,151722.75,190358.90625,227384.125,154149.796875,156449.796875,135584.171875,140495.734375,0.0
1713490185.9918728,150878.21875,151716.859375,190357.390625,227400.578125,154150.25,156441.921875,135572.015625,140491.265625,0.0
1713490185.9942355,150888.234375,151742.78125,190348.625,227456.28125,154212.65625,156453.375,135688.953125,140503.96875,0.0
1713490185.9967604,150865.609375,151725.4375,190326.09375,227422.484375,154193.515625,156445.765625,135691.546875,140493.328125,0.0
1713490185.9992347,150854.078125,151709.25,190329.9375,227357.75,154140.671875,156446.9375,135594.890625,140482.515625,0.0
1713490186.0018137,150849.15625,151700.578125,190329.765625,227351.765625,154125.65625,156440.5,135562.703125,140482.328125,0.0
1713490186.0042129,150876.34375,151739.828125,190345.140625,227438.484375,154207.203125,156463.296875,135683.953125,140511.828125,0.0
1713490186.00673,150859.890625,151732.046875,190325.828125,227417.484375,154199.859375,156443.078125,135689.125,140498.25,0.0
1713490186.0117283,150848.265625,151703.171875,190320.734375,227344.15625,154139.15625,156425.390625,135586.3125,140476.609375,0.0
1713490186.0141814,150864.53125,151706.921875,190337.453125,227351.578125,154126.28125,156428.25,135539.546875,140481.34375,0.0
1713490186.0167327,150860.15625,151717.84375,190321.890625,227398.4375,154174.109375,156431.1875,135631.90625,140488.40625,0.0
1713490186.0217087,150837.796875,151703.890625,190291.234375,227381.625,154170.359375,156412.421875,135667.046875,140478.125,0.0
1713490186.0241868,150846.296875,151703.625,190306.6875,227333.34375,154136.5625,156420.203125,135601.953125,140475.984375,0.0
1713490186.0267744,150852.28125,151699.328125,190320.90625,227317.34375,154111.703125,156426.453125,135539.546875,140476.609375,0.0
1713490186.029243,150874.015625,151729.015625,190328.953125,227380.8125,154172.59375,156449.609375,135632.453125,140500.21875,0.0
1713490186.0317698,150879.828125,151740.71875,190321.625,227414.4375,154207.640625,156456.765625,135709.609375,140506.5625,0.0
1713490186.034254,150856.40625,151707.46875,190300.171875,227337.90625,154144.875,156427.4375,135620.5625,140474.28125,0.0
1713490186.0367825,150849.609375,151684.578125,190298.65625,227283.90625,154095.4375,156418.59375,135529.625,140463.828125,0.0
1713490186.039261,150852.640625,151696.734375,190295.78125,227330.84375,154138.171875,156429.765625,135589.984375,140475.71875,0.0
1713490186.0417905,150846.828125,151706.578125,190276.5625,227355.78125,154173.75,156428.515625,135674.46875,140475.53125,0.0
1713490186.0442264,150845.5,151697.359375,190275.40625,227313.9375,154145.953125,156425.109375,135634.234375,140469.8125,0.0
1713490186.0467613,150846.390625,151686.359375,190287.828125,227276.921875,154103.578125,156428.25,135547.0625,140472.578125,0.0
1713490186.0492558,150858.09375,151701.65625,190292.84375,227312.6875,154130.125,156438.25,135583.90625,140489.21875,0.0
1713490186.0518072,150869.1875,151717.21875,190285.234375,227362.9375,154180.46875,156442.8125,135684.578125,140500.03125,0.0
1713490186.0542357,150872.765625,151720.34375,190291.234375,227344.4375,154168.03125,156446.484375,135669.1875,140497.890625,0.0
1713490186.0751512,150854.4375,151695.21875,190286.125,227267.359375,154107.953125,156433.96875,135559.21875,140479.203125,0.0
1713490186.0751624,150862.03125,151701.921875,190293.015625,227294.984375,154123.875,156445.328125,135562.4375,140488.140625,0.0
1713490186.0751672,150858.90625,151714.53125,190272.359375,227338.359375,154173.3125,156440.765625,135661.140625,140483.40625,0.0
1713490186.0751708,150846.484375,151697.625,190254.296875,227309.296875,154151.140625,156425.390625,135654.0,140470.796875,0.0
1713490186.0751748,150829.9375,151667.046875,190248.21875,227239.5625,154087.65625,156409.921875,135548.671875,140457.109375,0.0
1713490186.075179,150829.3125,151659.8125,190250.90625,227249.125,154080.0625,156411.53125,135528.203125,140467.9375,0.0
1713490186.0751832,150835.125,151676.4375,190240.09375,227306.703125,154139.609375,156410.453125,135633.15625,140477.953125,0.0
1713490186.075187,150832.078125,151680.828125,190233.296875,227296.328125,154141.21875,156407.59375,135652.296875,140472.9375,0.0
1713490186.0751913,150837.453125,151674.5625,190246.25,227240.625,154100.625,156413.484375,135576.5625,140471.0625,0.0
1713490186.0751948,150847.109375,151666.078125,190253.234375,227234.46875,154075.5,156410.0,135522.296875,140470.703125,0.0
1713490186.075199,150849.34375,151677.6875,190240.71875,227290.96875,154130.21875,156416.171875,135616.171875,140482.78125,0.0
1713490186.0752025,150832.890625,151679.21875,190222.921875,227288.90625,154142.375,156415.1875,135659.71875,140477.6875,0.0
1713490186.075206,150839.59375,151679.921875,190238.65625,227242.421875,154108.3125,156421.09375,135587.390625,140471.953125,0.0
1713490186.0752096,150826.09375,151654.265625,190232.390625,227212.5625,154060.65625,156401.59375,135502.453125,140458.546875,0.0
1713490186.0752132,150836.46875,151671.796875,190228.546875,227263.515625,154113.40625,156417.515625,135592.21875,140477.0625,0.0
1713490186.0752175,150851.296875,151693.609375,190226.59375,227280.59375,154155.15625,156435.390625,135679.65625,140489.65625,0.0
1713490186.0752213,150828.140625,151666.515625,190210.046875,227211.125,154096.328125,156410.265625,135594.265625,140459.265625,0.0
1713490186.075225,150832.171875,151664.8125,190224.796875,227181.171875,154063.703125,156416.0,135521.578125,140460.6875,0.0
1713490186.0752287,150838.078125,151680.640625,190224.171875,227228.828125,154106.96875,156430.921875,135589.984375,140479.921875,0.0
1713490186.0752332,150824.296875,151670.359375,190198.6875,227256.28125,154139.6875,156416.625,135670.265625,140484.390625,0.0
1713490186.0783443,150846.390625,151692.265625,190223.71875,227239.921875,154131.203125,156433.078125,135643.625,140494.484375,0.0
1713490186.078386,150821.53125,151646.578125,190207.453125,227168.5625,154056.453125,156394.53125,135516.578125,140461.40625,0.0
1713490186.080493,150831.453125,151667.234375,190213.171875,227202.8125,154085.421875,156405.265625,135548.9375,140471.0625,0.0
1713490186.082957,150833.875,151689.3125,190204.765625,227250.90625,154136.46875,156414.46875,135649.875,140474.1875,0.0
1713490186.0854895,150814.109375,151658.65625,190184.65625,227198.15625,154095.890625,156393.90625,135608.3125,140448.53125,0.0
1713490186.088029,150806.0625,151632.359375,190185.90625,227130.921875,154038.21875,156386.9375,135497.09375,140430.734375,0.0
1713490186.0904915,150811.96875,151637.28125,190194.21875,227164.984375,154054.578125,156398.109375,135507.546875,140446.125,0.0
1713490186.0963523,150825.46875,151672.15625,190194.84375,227231.59375,154128.15625,156421.453125,135634.328125,140468.734375,0.0
1713490186.0997071,150818.84375,151669.921875,190188.671875,227206.484375,154119.390625,156421.453125,135639.421875,140464.890625,0.0
1713490186.0997188,150793.640625,151631.828125,190175.265625,227127.703125,154049.484375,156395.078125,135526.234375,140442.0,0.0
1713490186.1048312,150790.328125,151619.125,190169.90625,227122.078125,154032.859375,156386.578125,135495.203125,140439.953125,0.0
1713490186.1048417,150795.6875,151639.703125,190160.6875,227181.53125,154094.09375,156402.3125,135610.359375,140460.6875,0.0
1713490186.1048462,150790.515625,151637.8125,190151.578125,227174.640625,154097.5,156398.65625,135639.78125,140467.75,0.0
1713490186.1048503,150798.375,151638.984375,190170.078125,227131.203125,154063.25,156405.984375,135565.921875,140474.734375,0.0
1713490186.1148877,150786.84375,151620.734375,190165.078125,227108.75,154028.921875,156395.515625,135502.625,140453.359375,0.0
1713490186.114916,150780.9375,151623.78125,190147.28125,227155.96875,154078.453125,156394.453125,135593.109375,140462.75,0.0
1713490186.121133,150797.65625,151646.84375,190154.875,227180.1875,154114.484375,156409.828125,135660.96875,140478.21875,0.0
1713490186.1211803,150808.65625,151653.640625,190172.578125,227135.578125,154079.171875,156415.09375,135588.546875,140472.765625,0.0
1713490186.1286635,150780.765625,151617.171875,190153.8125,227089.265625,154018.90625,156387.03125,135492.4375,140450.328125,0.0
1713490186.128677,150787.375,151631.5625,190148.4375,227145.5,154070.671875,156397.21875,135572.90625,140459.890625,0.0
1713490186.1386352,150788.09375,151639.515625,190135.84375,227157.03125,154100.171875,156403.125,135646.390625,140453.546875,0.0
1713490186.138677,150780.3125,151626.734375,190135.5625,227101.15625,154060.65625,156396.140625,135583.09375,140448.171875,0.0
1713490186.1411543,150797.578125,151630.3125,190159.984375,227081.484375,154033.296875,156403.125,135505.765625,140452.640625,0.0
1713490186.1411645,150797.21875,151646.125,190154.875,227121.71875,154071.203125,156411.96875,135561.09375,140457.390625,0.0
1713490186.15052,150782.015625,151645.0625,190130.921875,227140.578125,154103.125,156411.875,135644.96875,140452.921875,0.0
1713490186.154916,150783.359375,151644.25,190138.515625,227111.890625,154081.40625,156414.65625,135607.0625,140451.125,0.0
1713490186.1549263,150772.890625,151619.125,190134.5,227048.40625,154022.75,156399.640625,135502.453125,140431.8125,0.0
1713490186.1618123,150780.9375,151627.09375,190135.03125,227081.84375,154045.1875,156405.625,135533.390625,140442.453125,0.0
1713490186.1724164,150798.546875,151659.984375,190137.8125,227139.6875,154108.125,156420.203125,135645.234375,140460.6875,0.0
1713490186.1724277,150804.90625,151665.359375,190148.265625,227121.8125,154098.203125,156426.09375,135629.5,140462.296875,0.0
1713490186.190451,150776.375,151620.921875,190132.890625,227046.4375,154025.15625,156398.375,135504.421875,140436.203125,0.0
1713490186.1904848,150762.171875,151602.40625,190115.546875,227044.921875,154017.203125,156385.15625,135492.796875,140432.171875,0.0
1713490186.1904893,150776.46875,151634.328125,190110.625,227105.0,154080.328125,156399.28125,135607.6875,140446.921875,0.0
1713490186.192984,150792.5625,151654.171875,190120.90625,227099.90625,154086.140625,156416.078125,135627.625,140456.484375,0.0
1713490186.1961148,150770.03125,151614.21875,190109.828125,227027.9375,154018.09375,156393.015625,135513.171875,140433.875,0.0
1713490186.1961243,150763.78125,151600.53125,190107.9375,227039.734375,154007.90625,156384.53125,135484.484375,140442.90625,0.0
1713490186.2204404,150780.9375,151631.828125,190108.03125,227095.515625,154083.359375,156410.265625,135615.109375,140471.875,0.0
1713490186.2454336,150774.0625,151629.40625,190094.71875,227080.328125,154082.5625,156411.34375,135644.25,140459.53125,0.0
1713490186.270973,150767.984375,151616.1875,190101.859375,227030.96875,154038.484375,156408.65625,135562.53125,140465.15625,0.0
1713490186.2709827,150735.796875,151574.078125,190073.4375,226995.03125,153986.890625,156374.234375,135484.5625,140443.53125,0.0
1713490186.297192,150736.421875,151586.5,190055.734375,227029.625,154036.703125,156376.75,135578.796875,140441.734375,0.0
1713490186.2971997,150744.90625,151607.515625,190060.375,227049.921875,154065.390625,156391.9375,135640.859375,140453.90625,0.0
1713490186.2972035,150755.015625,151614.125,190082.28125,227010.3125,154037.765625,156400.171875,135575.765625,140459.359375,0.0
1713490186.2972076,150752.6875,151596.328125,190087.109375,226989.125,153999.59375,156394.359375,135501.90625,140456.21875,0.0
1713490186.3204114,150750.546875,151602.6875,190071.640625,227032.140625,154041.171875,156396.59375,135577.015625,140459.078125,0.0
1713490186.3267188,150750.546875,151614.21875,190058.328125,227045.1875,154074.25,156399.546875,135652.125,140458.71875,0.0
1713490186.329269,150743.484375,151608.3125,190056.359375,226991.546875,154034.375,156395.4375,135586.40625,140444.875,0.0
1713490186.3323135,150716.203125,151567.453125,190037.765625,226932.890625,153962.9375,156363.6875,135468.65625,140413.125,0.0
1713490186.332357,150720.859375,151578.09375,190034.890625,226974.46875,153997.265625,156366.640625,135518.90625,140418.046875,0.0
1713490186.3342736,150748.75,151620.734375,190051.609375,227028.734375,154063.34375,156397.125,135634.5,140443.96875,0.0
1713490186.3367236,150750.8125,151619.40625,190060.5625,226991.28125,154038.3125,156394.984375,135589.078125,140434.59375,0.0
1713490186.3391595,150735.4375,151592.578125,190056.53125,226936.734375,153973.75,156367.984375,135457.921875,140403.734375,0.0
1713490186.3417203,150744.640625,151593.109375,190057.421875,226982.609375,153998.78125,156370.3125,135489.3125,140422.78125,0.0
1713490186.3441906,150745.171875,151602.328125,190035.796875,227008.0,154038.03125,156371.375,135584.609375,140418.21875,0.0
1713490186.3467138,150739.28125,151600.890625,190032.03125,226972.234375,154019.0,156371.296875,135564.3125,140407.234375,0.0
1713490186.3491888,150736.5,151591.140625,190044.640625,226927.265625,153977.59375,156376.5625,135473.84375,140412.234375,0.0
1713490186.3517227,150741.609375,151592.9375,190048.671875,226954.53125,153988.859375,156387.109375,135481.171875,140427.796875,0.0
1713490186.354186,150767.53125,151634.421875,190061.453125,227037.234375,154075.5,156427.96875,135623.5,140467.75,0.0
1713490186.356712,150752.421875,151626.28125,190045.984375,226995.828125,154059.765625,156424.75,135627.078125,140453.546875,0.0
1713490186.3592038,150725.421875,151586.3125,190029.09375,226911.4375,153982.15625,156391.9375,135506.203125,140420.546875,0.0
1713490186.3616886,150708.703125,151559.859375,190016.03125,226908.296875,153959.984375,156372.1875,135469.015625,140413.125,0.0
1713490186.364182,150732.390625,151599.375,190023.625,226972.046875,154036.15625,156396.140625,135594.984375,140441.46875,0.0
1713490186.3667195,150733.203125,151601.078125,190015.234375,226962.390625,154038.484375,156390.609375,135621.890625,140438.703125,0.0
1713490186.369182,150721.9375,151578.265625,190013.625,226899.546875,153981.625,156374.328125,135524.796875,140424.21875,0.0
1713490186.3717272,150718.625,151568.171875,190016.65625,226898.921875,153959.71875,156370.125,135476.703125,140429.046875,0.0
1713490186.3767052,150733.203125,151597.859375,190013.703125,226957.296875,154024.359375,156388.015625,135587.390625,140450.859375,0.0
1713490186.3791964,150722.203125,151584.984375,189990.109375,226948.53125,154026.0625,156372.453125,135628.96875,140435.84375,0.0
1713490186.3817024,150712.90625,151565.671875,189986.0,226882.640625,153973.21875,156354.84375,135541.703125,140420.1875,0.0
1713490186.3842404,150703.875,151548.953125,189986.96875,226853.140625,153933.15625,156343.9375,135458.546875,140414.015625,0.0
1713490186.3892343,150696.71875,151556.640625,189971.59375,226897.125,153972.40625,156340.984375,135524.171875,140415.8125,0.0
1713490186.3922884,150705.65625,151574.078125,189970.796875,226926.546875,154007.375,156347.15625,135599.28125,140424.578125,0.0
1713490186.3923,150682.328125,151541.703125,189951.921875,226850.015625,153942.90625,156314.609375,135505.125,140388.453125,0.0
1713490186.3954124,150691.71875,151533.484375,189966.046875,226823.015625,153902.3125,156314.078125,135418.40625,140385.328125,0.0
1713490186.3954546,150708.96875,151552.703125,189971.78125,226877.375,153947.734375,156327.75,135484.03125,140401.953125,0.0
1713490186.3954744,150718.453125,151576.125,189966.953125,226913.484375,153995.390625,156340.0,135576.921875,140404.8125,0.0
1713490186.3991668,150724.34375,151578.0,189975.171875,226876.125,153974.5625,156349.65625,135541.96875,140396.859375,0.0
1713490186.3991933,150738.03125,151579.703125,189998.6875,226843.03125,153937.0,156357.96875,135453.28125,140394.625,0.0
1713490186.399206,150744.546875,151586.671875,190001.640625,226879.875,153963.296875,156372.1875,135486.359375,140402.84375,0.0
1713490186.402924,150738.03125,151593.734375,189980.8125,226914.921875,154007.375,156367.09375,135573.96875,140401.5,0.0
1713490186.4029348,150732.390625,151590.25,189976.96875,226881.21875,153989.765625,156366.28125,135554.671875,140399.890625,0.0
1713490186.40294,150725.953125,151575.5,189988.578125,226832.3125,153945.6875,156364.671875,135462.9375,140406.609375,0.0
1713490186.4067729,150708.25,151557.171875,189974.28125,226840.984375,153943.265625,156353.40625,135457.03125,140407.40625,0.0
1713490186.4067893,150708.15625,151568.34375,189952.46875,226884.96875,153994.671875,156355.828125,135569.59375,140417.328125,0.0
1713490186.4068017,150694.578125,151558.78125,189935.203125,226850.8125,153975.0,156349.390625,135569.59375,140408.03125,0.0
1713490186.409263,150687.328125,151548.59375,189946.109375,226793.6875,153930.578125,156353.046875,135482.78125,140409.015625,0.0
1713490186.412341,150694.390625,151551.1875,189958.09375,226810.40625,153932.53125,156361.28125,135467.765625,140423.859375,0.0
1713490186.4124005,150698.515625,151568.609375,189947.28125,226866.375,153994.859375,156373.34375,135581.578125,140434.765625,0.0
1713490186.4142427,150696.625,151576.390625,189943.171875,226859.84375,154005.9375,156382.375,135615.734375,140435.84375,0.0
1713490186.4167747,150685.546875,151557.265625,189945.046875,226798.953125,153955.0625,156371.375,135519.890625,140420.546875,0.0
1713490186.4192493,150670.875,151536.96875,189937.984375,226781.34375,153921.546875,156354.125,135455.25,140408.125,0.0
1713490186.42179,150688.859375,151568.890625,189941.5625,226848.40625,153991.546875,156378.796875,135569.859375,140431.640625,0.0
1713490186.4267683,150677.671875,151559.59375,189919.203125,226837.859375,153994.5,156366.46875,135613.046875,140422.34375,0.0
1713490186.429259,150661.578125,151533.484375,189906.953125,226763.015625,153930.75,156341.515625,135511.5625,140393.1875,0.0
1713490186.4317875,150666.953125,151520.78125,189915.265625,226746.390625,153894.71875,156327.484375,135432.171875,140393.453125,0.0
1713490186.4347253,150671.859375,151534.828125,189908.125,226802.984375,153945.046875,156333.5625,135516.671875,140409.734375,0.0
1713490186.434736,150667.84375,151544.203125,189894.625,226820.6875,153971.421875,156333.828125,135590.0625,140412.5,0.0
1713490186.4367228,150656.046875,151526.15625,189890.59375,226755.234375,153924.21875,156317.921875,135512.46875,140391.21875,0.0
1713490186.4441864,150655.140625,151508.09375,189899.890625,226722.421875,153882.921875,156312.90625,135427.703125,140385.59375,0.0
1713490186.451682,150657.015625,151513.28125,189890.859375,226764.09375,153913.765625,156311.125,135473.578125,140386.3125,0.0
1713490186.451696,150655.40625,151519.625,189869.9375,226788.40625,153941.828125,156300.03125,135542.328125,140376.109375,0.0
1713490186.4517,150665.703125,151521.5,189876.203125,226751.125,153917.515625,156303.15625,135499.234375,140369.671875,0.0
1713490186.4560022,150653.53125,151496.015625,189874.859375,226698.828125,153858.15625,156286.796875,135388.1875,140349.5625,0.0
1713490186.4560094,150666.953125,151515.328125,189886.921875,226747.375,153895.171875,156303.515625,135429.859375,140369.234375,0.0
1713490186.461724,150670.171875,151535.359375,189877.28125,226788.765625,153948.0,156314.515625,135535.4375,140381.390625,0.0
1713490186.467962,150669.265625,151531.15625,189875.484375,226757.921875,153932.453125,156319.53125,135523.375,140381.296875,0.0
1713490186.4747815,150661.40625,151512.109375,189876.828125,226696.671875,153875.40625,156312.109375,135419.484375,140367.703125,0.0
1713490186.4747922,150655.953125,151501.65625,189869.40625,226710.265625,153874.0625,156306.5625,135418.3125,140367.0,0.0
1713490186.4898038,150665.96875,151527.125,189864.125,226768.375,153939.25,156326.046875,135542.328125,140389.609375,0.0
1713490186.489827,150648.796875,151516.140625,189846.515625,226734.046875,153923.78125,156323.28125,135543.578125,140382.375,0.0
1713490186.5198226,150641.015625,151494.046875,189846.078125,226665.75,153865.03125,156315.5,135441.390625,140367.359375,0.0
1713490186.5198596,150657.203125,151498.796875,189858.9375,226686.84375,153866.28125,156323.09375,135426.8125,140382.640625,0.0
1713490186.522354,150658.1875,151511.3125,189844.90625,226733.6875,153919.84375,156322.03125,135528.375,140385.765625,0.0
1713490186.52236,150648.890625,151512.734375,189834.171875,226725.375,153921.359375,156316.65625,135553.859375,140377.359375,0.0
1713490186.5253096,150647.640625,151505.859375,189847.859375,226675.125,153882.640625,156319.875,135473.75,140374.234375,0.0
1713490186.525323,150639.5,151484.65625,189847.328125,226661.90625,153854.21875,156311.484375,135417.515625,140368.875,0.0
1713490186.5253284,150639.046875,151493.421875,189829.078125,226706.6875,153898.390625,156306.46875,135498.875,140365.828125,0.0
1713490186.5285943,150639.140625,151503.890625,189818.0,226705.34375,153914.65625,156308.265625,135550.1875,140364.40625,0.0
1713490186.528611,150633.6875,151496.640625,189826.046875,226654.828125,153878.171875,156314.875,135482.25,140361.359375,0.0
1713490186.5304918,150640.84375,151494.859375,189843.296875,226644.46875,153847.328125,156313.0,135407.140625,140365.65625,0.0
1713490186.5330017,150637.171875,151492.796875,189824.703125,226687.015625,153881.671875,156298.875,135474.46875,140362.609375,0.0
1713490186.5355053,150629.390625,151496.015625,189804.234375,226697.75,153903.03125,156295.75,135540.265625,140351.703125,0.0
1713490186.5385509,150647.1875,151507.8125,189827.390625,226662.796875,153881.671875,156307.71875,135482.421875,140356.890625,0.0
1713490186.53856,150640.84375,151485.640625,189827.828125,226621.125,153832.671875,156293.15625,135383.265625,140344.640625,0.0
1713490186.5404365,150620.015625,151473.671875,189800.390625,226645.0,153847.15625,156272.5,135415.546875,140334.0,0.0
1713490186.5504963,150633.15625,151503.703125,189805.390625,226694.265625,153908.9375,156296.640625,135525.96875,140360.734375,0.0
1713490186.5535796,150630.734375,151499.0625,189808.078125,226651.96875,153884.078125,156298.875,135488.5,140360.296875,0.0
1713490186.5536003,150628.59375,151480.90625,189813.4375,226605.484375,153833.03125,156292.078125,135392.84375,140355.640625,0.0
1713490186.5567296,150640.390625,151493.34375,189819.609375,226646.15625,153864.40625,156305.578125,135438.4375,140377.015625,0.0
1713490186.582404,150646.828125,151513.984375,189812.09375,226690.59375,153920.921875,156328.375,135554.75,140396.234375,0.0
1713490186.5824156,150641.015625,151502.09375,189803.953125,226654.65625,153897.9375,156324.171875,135533.65625,140387.296875,0.0
1713490186.608052,150643.703125,151491.546875,189817.640625,226610.125,153856.0,156325.34375,135443.4375,140388.625,0.0
1713490186.6331255,150637.71875,151486.359375,189813.171875,226629.359375,153862.53125,156327.125,135445.671875,140394.359375,0.0
1713490186.6993423,150626.984375,151490.5625,189786.171875,226665.5625,153906.78125,156320.859375,135541.34375,140389.078125,0.0
1713490186.7068596,150612.140625,151476.703125,189765.96875,226632.125,153885.15625,156308.078125,135535.078125,140372.09375,0.0
1713490186.7317505,150604.546875,151460.25,189770.4375,226570.171875,153836.25,156304.140625,135441.5625,140365.75,0.0
1713490186.7454765,150602.9375,151455.703125,189773.375,226572.21875,153830.4375,156304.5,135421.0,140369.3125,0.0
1713490186.7479377,150620.1875,151488.59375,189773.109375,226636.6875,153900.078125,156326.140625,135538.84375,140385.328125,0.0
1713490186.750442,150624.921875,151494.59375,189770.515625,226632.3125,153905.53125,156328.734375,135568.171875,140384.875,0.0
1713490186.7529745,150612.59375,151473.671875,189768.90625,226567.21875,153851.796875,156316.84375,135475.53125,140372.453125,0.0
1713490186.755422,150595.59375,151444.15625,189755.859375,226545.578125,153811.5625,156285.734375,135399.8125,140352.25,0.0
1713490186.7579217,150607.671875,151461.859375,189752.734375,226606.109375,153867.984375,156288.328125,135493.0625,140360.828125,0.0
1713490186.7604663,150633.59375,151493.25,189768.203125,226632.390625,153903.75,156310.671875,135560.65625,140380.765625,0.0
1713490186.7629673,150608.390625,151458.5625,189746.65625,226547.375,153830.609375,156280.0,135451.75,140343.75,0.0
1713490186.7654765,150590.421875,151430.9375,189737.796875,226518.484375,153783.578125,156260.96875,135361.8125,140329.71875,0.0
1713490186.7678978,150606.859375,151459.984375,189742.984375,226580.890625,153847.421875,156283.21875,135457.75,140350.90625,0.0
1713490186.770466,150605.34375,151470.359375,189729.03125,226592.96875,153870.125,156282.875,135524.0,140344.640625,0.0
1713490186.772971,150607.9375,151462.671875,189737.796875,226546.828125,153831.953125,156280.1875,135454.4375,140336.953125,0.0
1713490186.7754593,150602.84375,151445.40625,189743.703125,226512.953125,153786.359375,156271.609375,135363.328125,140332.125,0.0
1713490186.7779355,150610.4375,151457.484375,189743.15625,226561.9375,153827.65625,156282.328125,135423.953125,140348.046875,0.0
1713490186.7829652,150605.53125,151462.84375,189722.875,226585.8125,153862.890625,156287.78125,135510.9375,140348.484375,0.0
1713490186.7854664,150603.375,151461.59375,189725.453125,226542.890625,153839.90625,156294.765625,135475.453125,140345.453125,0.0
1713490186.7879803,150615.09375,151459.546875,189748.703125,226514.015625,153808.265625,156305.125,135393.46875,140354.03125,0.0
1713490186.790467,150601.234375,151443.890625,189729.65625,226532.796875,153814.96875,156288.40625,135408.3125,140347.234375,0.0
1713490186.7929332,150598.375,151458.921875,189711.515625,226565.96875,153861.90625,156293.6875,135510.046875,140348.484375,0.0
1713490186.7954657,150600.078125,151456.671875,189712.046875,226532.4375,153844.65625,156299.40625,135497.359375,140345.09375,0.0
1713490186.7979326,150595.515625,151439.421875,189720.984375,226478.25,153796.90625,156298.96875,135406.0625,140340.171875,0.0
1713490186.8004692,150589.703125,151431.734375,189714.28125,226493.71875,153801.203125,156292.25,135409.921875,140340.890625,0.0
1713490186.8029394,150595.875,151453.546875,189705.796875,226548.625,153862.4375,156299.40625,135523.8125,140356.984375,0.0
1713490186.8054163,150593.1875,151454.09375,189703.46875,226530.015625,153856.453125,156298.25,135529.265625,140357.875,0.0
1713490186.807978,150583.984375,151435.046875,189707.84375,226468.875,153802.0,156286.890625,135425.46875,140341.6875,0.0
1713490186.8129492,150593.015625,151438.890625,189720.453125,226487.828125,153802.625,156294.21875,135404.28125,140349.921875,0.0
1713490186.8154724,150596.9375,151453.734375,189702.65625,226533.0625,153856.453125,156302.71875,135510.59375,140356.359375,0.0
1713490186.8179808,150576.015625,151437.015625,189667.53125,226498.1875,153830.609375,156279.296875,135511.84375,140326.84375,0.0
1713490186.8325236,150553.84375,151411.0,189657.6875,226422.015625,153765.609375,156258.109375,135402.21875,140299.046875,0.0
1713490186.8325422,150550.890625,151399.09375,189664.9375,226418.796875,153745.046875,156254.34375,135351.265625,140302.171875,0.0
1713490186.8325465,150574.234375,151435.125,189676.828125,226495.0625,153821.21875,156280.984375,135468.390625,140333.46875,0.0
1713490186.83255,150571.8125,151443.453125,189666.265625,226500.34375,153837.3125,156280.546875,135517.203125,140331.5,0.0
1713490186.8325543,150571.8125,151432.265625,189672.171875,226442.3125,153790.65625,156272.5,135429.9375,140319.875,0.0
1713490186.832558,150561.0,151408.3125,189670.921875,226412.625,153746.484375,156252.46875,135343.84375,140309.15625,0.0
1713490186.8325624,150561.09375,151421.09375,189663.40625,226469.578125,153796.375,156254.34375,135423.859375,140320.328125,0.0
1713490186.832566,150564.21875,151431.109375,189654.734375,226489.875,153832.140625,156260.609375,135505.3125,140332.84375,0.0
1713490186.8325691,150577.546875,151432.625,189668.515625,226448.125,153805.671875,156266.953125,135451.671875,140336.859375,0.0
1713490186.8325727,150563.234375,151403.03125,189660.734375,226399.40625,153748.09375,156247.015625,135348.140625,140318.171875,0.0
1713490186.8325765,150563.953125,151410.640625,189654.46875,226443.5625,153787.4375,156258.375,135413.9375,140332.390625,0.0
1713490186.83258,150566.71875,151432.0,189647.859375,226478.25,153837.046875,156277.234375,135520.328125,140347.234375,0.0
1713490186.8325837,150550.0,151416.0,189639.265625,226425.953125,153802.0,156271.0625,135474.828125,140334.1875,0.0
1713490186.832591,150536.0625,151388.640625,189635.15625,226373.03125,153746.65625,156256.046875,135372.625,140319.703125,0.0
1713490186.8325946,150561.0,151411.078125,189651.703125,226426.671875,153790.5625,156285.109375,135429.5,140346.96875,0.0
1713490186.832598,150579.5,151444.25,189655.71875,226481.390625,153858.15625,156314.703125,135554.3125,140370.03125,0.0
1713490186.8326018,150550.546875,151415.015625,189628.28125,226420.859375,153811.84375,156287.34375,135508.0,140337.484375,0.0
1713490186.8353512,150542.3125,151394.1875,189629.171875,226360.234375,153754.53125,156275.890625,135404.453125,140323.625,0.0
1713490186.8353577,150531.5,151378.625,189616.390625,226369.09375,153747.203125,156254.890625,135387.734375,140316.125,0.0
1713490186.835362,150542.046875,151403.390625,189610.125,226424.4375,153808.53125,156269.8125,135501.734375,140328.90625,0.0
1713490186.8391244,150546.515625,151408.84375,189610.84375,226407.890625,153803.4375,156277.140625,135508.53125,140330.15625,0.0
1713490186.83913,150527.03125,151378.265625,189602.25,226336.546875,153735.03125,156253.8125,135390.15625,140304.046875,0.0
1713490186.8391337,150533.109375,151373.078125,189608.0625,226348.078125,153727.53125,156247.546875,135360.203125,140305.84375,0.0
1713490186.8429325,150541.78125,151395.875,189603.0625,226408.4375,153792.890625,156257.921875,135469.734375,140316.03125,0.0
1713490186.8429413,150551.4375,151411.890625,189608.78125,226411.203125,153807.640625,156270.171875,135507.71875,140326.765625,0.0
1713490186.8429456,150525.421875,151374.515625,189589.5625,226323.765625,153731.109375,156237.453125,135385.6875,140287.328125,0.0
1713490186.8582091,150524.34375,151363.78125,189592.25,226314.375,153707.234375,156227.25,135329.171875,140282.6875,0.0
1713490186.85822,150541.15625,151394.265625,189596.53125,226382.328125,153775.1875,156242.28125,135434.40625,140305.296875,0.0
1713490186.858224,150535.78125,151398.5625,189585.8125,226388.21875,153789.75,156243.4375,135480.71875,140303.609375,0.0
1713490186.8582284,150524.609375,151379.15625,189582.953125,226318.21875,153737.1875,156231.90625,135388.359375,140282.140625,0.0
1713490186.8582327,150523.71875,151365.9375,189590.546875,226301.59375,153706.25,156227.53125,135319.53125,140286.34375,0.0
1713490186.8582373,150521.125,151374.6875,189577.046875,226349.25,153752.03125,156228.859375,135397.671875,140295.46875,0.0
1713490186.8605187,150553.671875,151420.921875,189599.03125,226399.484375,153812.90625,156269.375,135495.296875,140322.109375,0.0
1713490186.8630185,150552.953125,151418.859375,189607.625,226353.4375,153782.609375,156275.625,135442.1875,140324.078125,0.0
1713490186.8655326,150509.40625,151363.15625,189574.90625,226284.6875,153702.21875,156232.984375,135321.578125,140285.984375,0.0
1713490186.8680406,150516.46875,151374.421875,189569.53125,226329.484375,153738.34375,156241.734375,135385.5,140299.9375,0.0
1713490186.8705397,150516.46875,151387.75,189556.125,226358.265625,153781.265625,156255.234375,135485.375,140312.71875,0.0
1713490186.8729477,150500.65625,151365.84375,189542.625,226301.046875,153742.453125,156243.53125,135436.5625,140299.5,0.0
1713490186.8754778,150497.34375,151344.203125,189549.421875,226255.71875,153694.265625,156232.359375,135341.96875,140294.84375,0.0
1713490186.8779695,150503.421875,151349.390625,189551.46875,226294.53125,153720.015625,156234.671875,135377.109375,140305.21875,0.0
1713490186.880479,150525.234375,151386.234375,189558.265625,226352.8125,153787.25,156260.421875,135497.0,140328.109375,0.0
1713490186.8829212,150514.234375,151376.84375,189547.265625,226308.5625,153760.78125,156253.625,135468.5625,140314.328125,0.0
1713490186.8879747,150492.609375,151343.765625,189536.453125,226240.25,153694.453125,156230.125,135352.609375,140291.625,0.0
1713490186.890479,150496.8125,151348.859375,189542.71875,226270.828125,153709.203125,156235.21875,135360.203125,140303.78125,0.0
1713490186.8935423,150503.78125,151373.359375,189534.578125,226320.0,153769.1875,156252.015625,135472.046875,140314.875,0.0
1713490186.8935587,150476.328125,151341.96875,189497.109375,226265.203125,153728.6875,156226.71875,135449.15625,140279.375,0.0
1713490186.8954787,150488.140625,151337.234375,189515.53125,226217.90625,153688.359375,156234.046875,135361.984375,140279.015625,0.0
1713490186.8985388,150478.921875,151321.3125,189510.265625,226219.15625,153672.625,156224.578125,135328.734375,140274.015625,0.0
1713490186.8985455,150489.109375,151350.109375,189508.015625,226281.109375,153740.046875,156239.5,135442.90625,140288.765625,0.0
1713490186.9004672,150485.265625,151353.59375,189505.515625,226277.1875,153750.5,156243.4375,135474.203125,140292.078125,0.0
1713490186.904219,150475.265625,151336.6875,189507.578125,226208.6875,153700.796875,156235.125,135380.859375,140277.765625,0.0
1713490186.919793,150489.65625,151343.3125,189526.796875,226216.5625,153693.828125,156244.25,135341.25,140289.84375,0.0
1713490186.9198,150474.8125,151340.890625,189497.5625,226257.25,153733.421875,156231.640625,135424.84375,140284.390625,0.0
1713490186.9222643,150483.65625,151359.5,189499.078125,226271.015625,153757.203125,156240.578125,135481.890625,140292.421875,0.0
1713490186.922276,150483.03125,151351.265625,189508.296875,226215.046875,153715.453125,156238.25,135402.3125,140281.515625,0.0
1713490186.928558,150478.484375,151333.125,189512.21875,226190.8125,153677.375,156228.953125,135322.390625,140274.015625,0.0
1713490186.9285688,150476.421875,151340.625,189500.25,226240.4375,153724.390625,156228.78125,135405.4375,140284.5625,0.0
1713490186.953601,150484.015625,151356.984375,189496.671875,226265.203125,153759.796875,156237.0,135485.828125,140298.59375,0.0
1713490186.9536197,150463.09375,151336.78125,189488.0,226198.859375,153713.484375,156225.203125,135414.5625,140282.78125,0.0
1713490186.9785862,150461.484375,151327.484375,189498.359375,226167.390625,153675.046875,156227.171875,135334.28125,140284.828125,0.0
1713490186.9785967,150475.796875,151344.921875,189500.6875,226223.890625,153720.90625,156243.625,135406.25,140305.75,0.0
1713490187.0036113,150470.875,151350.828125,189480.578125,226247.3125,153752.734375,156242.8125,135490.5625,140304.671875,0.0
1713490187.0036533,150448.171875,151321.859375,189459.03125,226179.546875,153699.984375,156217.953125,135421.453125,140274.8125,0.0
1713490187.0280602,150441.546875,151298.609375,189458.40625,226125.8125,153640.09375,156200.796875,135312.1875,140258.09375,0.0
1713490187.0530753,150445.671875,151303.53125,189458.578125,226163.1875,153661.1875,156201.15625,135339.8125,140265.15625,0.0
1713490187.0743592,150457.015625,151330.53125,189458.671875,226214.328125,153723.5,156217.25,135451.84375,140280.8125,0.0
1713490187.0767453,150460.15625,151329.359375,189462.421875,226184.90625,153707.953125,156219.390625,135433.78125,140278.296875,0.0
1713490187.0793276,150449.59375,151304.59375,189462.25,226126.890625,153650.734375,156204.375,135325.15625,140262.203125,0.0
1713490187.08183,150454.0625,151310.40625,189467.078125,226157.28125,153665.484375,156211.609375,135336.25,140275.0,0.0
1713490187.0843203,150452.8125,151326.6875,189451.609375,226203.234375,153720.28125,156218.5,135446.125,140283.75,0.0
1713490187.0868316,150448.53125,151323.828125,189445.96875,226179.640625,153711.703125,156216.96875,135446.125,140278.65625,0.0
1713490187.0892804,150446.109375,151305.9375,189452.40625,226121.25,153661.453125,156210.359375,135345.453125,140267.75,0.0
1713490187.091801,150438.328125,151288.59375,189445.4375,226119.90625,153644.640625,156198.296875,135314.15625,140262.203125,0.0
1713490187.094274,150450.046875,151316.125,189443.5625,226178.5625,153707.953125,156206.609375,135422.34375,140275.890625,0.0
1713490187.0967507,150443.34375,151318.28125,189435.328125,226165.25,153709.921875,156203.390625,135443.0,140266.328125,0.0
1713490187.099275,150423.046875,151285.734375,189421.65625,226085.046875,153640.890625,156175.21875,135329.171875,140231.625,0.0
1713490187.1017733,150437.625,151285.46875,189435.78125,226091.84375,153628.546875,156179.0625,135289.84375,140242.09375,0.0
1713490187.1042616,150454.34375,151315.0625,189437.5625,226158.359375,153698.296875,156199.0,135400.4375,140266.953125,0.0
1713490187.1067665,150452.8125,151323.828125,189429.96875,226162.203125,153715.640625,156202.3125,135447.828125,140267.390625,0.0
1713490187.1092677,150446.375,151311.484375,189433.015625,226100.953125,153670.578125,156196.046875,135367.71875,140256.3125,0.0
1713490187.1116853,150430.828125,151281.625,189423.53125,226065.46875,153620.421875,156178.53125,135282.234375,140237.625,0.0
1713490187.1142733,150461.046875,151319.265625,189439.8125,226141.109375,153694.0,156213.046875,135394.890625,140274.640625,0.0
1713490187.1167555,150465.328125,151334.375,189431.9375,226160.421875,153723.421875,156220.734375,135465.53125,140276.25,0.0
1713490187.1191828,150447.625,151311.75,189418.796875,226091.390625,153668.78125,156206.78125,135382.375,140247.09375,0.0
1713490187.121781,150425.375,151276.875,189408.15625,226043.46875,153609.328125,156184.078125,135279.203125,140229.125,0.0
1713490187.1242688,150430.734375,151286.359375,189405.46875,226090.953125,153648.765625,156190.6875,135339.375,140244.5,0.0
1713490187.1267402,150449.6875,151317.46875,189411.734375,226141.1875,153709.28125,156217.421875,135453.71875,140272.40625,0.0
1713490187.1292856,150449.6875,151313.625,189415.125,226099.53125,153685.234375,156220.375,135417.875,140272.046875,0.0
1713490187.1592357,150441.640625,151292.625,189418.96875,226050.796875,153633.921875,156210.359375,135318.0,140263.734375,0.0
1713490187.1617625,150444.5,151298.15625,189418.265625,226087.375,153660.109375,156213.3125,135352.25,140273.390625,0.0
1713490187.1642287,150441.734375,151311.296875,189401.1875,226121.171875,153705.53125,156215.546875,135449.703125,140274.734375,0.0
1713490187.166722,150422.421875,151290.296875,189380.078125,226070.203125,153664.140625,156194.09375,135406.34375,140247.09375,0.0
1713490187.169188,150431.359375,151286.890625,189399.390625,226030.15625,153623.375,156195.875,135312.015625,140245.40625,0.0
1713490187.171717,150427.609375,151283.859375,189397.6875,226049.375,153630.15625,156192.390625,135312.453125,140246.03125,0.0
1713490187.1742153,150452.1875,151318.28125,189403.234375,226113.65625,153701.421875,156217.25,135436.296875,140267.3125,0.0
1713490187.1875935,150438.0625,151302.1875,189382.765625,226077.796875,153676.828125,156200.796875,135425.921875,140245.9375,0.0
1713490187.1876135,150406.953125,151258.015625,189359.96875,225991.4375,153595.03125,156163.6875,135297.625,140207.046875,0.0
1713490187.1876175,150406.59375,151248.1875,189360.046875,225997.875,153583.21875,156155.828125,135265.96875,140207.5,0.0
1713490187.187622,150417.953125,151275.71875,189357.1875,226056.703125,153649.46875,156172.546875,135382.203125,140226.8125,0.0
1713490187.187626,150421.34375,151284.484375,189355.859375,226053.578125,153658.6875,156178.265625,135414.734375,140231.546875,0.0
1713490187.1876292,150413.921875,151270.09375,189358.890625,225994.46875,153610.84375,156175.9375,135329.171875,140223.59375,0.0
1713490187.1876328,150417.5,151265.078125,189368.546875,225993.84375,153591.625,156174.59375,135274.8125,140224.390625,0.0
1713490187.1876364,150411.15625,151270.265625,189349.140625,226035.328125,153633.203125,156170.125,135351.53125,140216.703125,0.0
1713490187.18764,150413.03125,151277.421875,189343.25,226043.734375,153653.3125,156173.875,135403.203125,140218.84375,0.0
1713490187.1876435,150410.96875,151264.90625,189349.234375,225988.03125,153613.53125,156167.265625,135327.390625,140213.21875,0.0
1713490187.187647,150404.265625,151246.21875,189350.125,225964.703125,153575.359375,156154.125,135252.375,140206.953125,0.0
1713490187.1876507,150410.4375,151264.71875,189345.5625,226016.46875,153625.78125,156166.8125,135337.3125,140220.640625,0.0
1713490187.1876547,150409.359375,151282.25,189338.953125,226037.75,153660.46875,156180.046875,135416.0,140231.359375,0.0
1713490187.1876583,150413.03125,151285.46875,189352.453125,225995.015625,153636.78125,156189.703125,135368.703125,140233.78125,0.0
1713490187.187662,150397.390625,151255.515625,189347.53125,225949.59375,153581.34375,156168.875,135272.40625,140218.671875,0.0
1713490187.189206,150411.25,151274.375,189353.703125,226004.578125,153629.625,156185.765625,135346.25,140243.171875,0.0
1713490187.1916792,150411.421875,151288.0625,189341.015625,226034.0,153667.71875,156186.9375,135427.703125,140243.796875,0.0
1713490187.194204,150406.6875,151276.34375,189337.53125,225981.875,153631.140625,156174.421875,135369.6875,140225.734375,0.0
1713490187.196704,150405.703125,151258.828125,189346.90625,225940.734375,153584.390625,156164.046875,135270.0,140218.125,0.0
1713490187.1991932,150394.4375,151244.96875,189330.1875,225965.953125,153593.59375,156148.671875,135287.15625,140214.203125,0.0
1713490187.201716,150398.453125,151267.40625,189324.015625,226013.078125,153651.078125,156162.609375,135396.234375,140227.875,0.0
1713490187.2048328,150404.359375,151275.8125,189333.5,225987.234375,153642.140625,156172.359375,135383.8125,140229.75,0.0
1713490187.2048593,150389.875,151245.5,189328.046875,225916.953125,153573.5625,156148.21875,135262.390625,140199.625,0.0
1713490187.2079425,150397.390625,151243.0,189329.5625,225937.96875,153574.90625,156145.265625,135252.921875,140196.578125,0.0
1713490187.2079532,150409.90625,151268.390625,189322.953125,225994.75,153636.421875,156161.28125,135370.84375,140211.6875,0.0
1713490187.207958,150383.703125,151246.125,189293.265625,225949.234375,153605.046875,156138.296875,135356.71875,140190.0625,0.0
1713490187.2104943,150365.109375,151215.640625,189280.21875,225874.3125,153536.015625,156109.421875,135242.546875,140167.96875,0.0
1713490187.2130187,150374.40625,151219.03125,189291.203125,225891.390625,153538.078125,156116.03125,135228.953125,140185.3125,0.0
1713490187.2185824,150375.75,151240.84375,189283.25,225945.125,153600.296875,156133.296875,135343.03125,140199.53125,0.0
1713490187.2185946,150390.234375,151267.578125,189297.296875,225955.765625,153625.609375,156162.34375,135391.9375,140214.5625,0.0
1713490187.2205832,150382.453125,151250.421875,189297.46875,225891.03125,153569.71875,156151.625,135290.5625,140194.0,0.0
1713490187.2260017,150376.828125,151234.5,189294.34375,225878.515625,153541.828125,156144.46875,135233.421875,140185.953125,0.0
1713490187.2260103,150380.9375,151253.640625,189285.9375,225933.140625,153603.78125,156162.078125,135337.5,140199.53125,0.0
1713490187.228052,150381.734375,151266.328125,189282.984375,225943.875,153629.171875,156173.171875,135396.0625,140206.953125,0.0
1713490187.2305496,150369.125,151246.75,189280.578125,225880.84375,153580.546875,156161.1875,135311.296875,140190.234375,0.0
1713490187.2330496,150366.890625,151227.078125,189281.640625,225858.390625,153544.328125,156154.84375,135240.578125,140187.5625,0.0
1713490187.2354257,150370.734375,151237.625,189272.25,225910.171875,153596.09375,156162.96875,135328.828125,140201.765625,0.0
1713490187.2404385,150379.328125,151262.9375,189275.75,225940.921875,153643.3125,156187.203125,135420.203125,140219.734375,0.0
1713490187.243506,150361.796875,151243.0,189267.78125,225875.296875,153594.578125,156172.359375,135348.484375,140200.15625,0.0
1713490187.243512,150343.65625,151208.03125,189258.125,225823.96875,153531.71875,156141.78125,135240.671875,140178.25,0.0
1713490187.2460265,150354.921875,151221.984375,189258.84375,225874.046875,153571.515625,156149.390625,135303.078125,140194.890625,0.0
1713490187.2460363,150351.875,151232.890625,189244.09375,225902.296875,153607.09375,156144.640625,135380.5,140194.890625,0.0
1713490187.2529852,150338.734375,151216.796875,189234.4375,225848.03125,153568.46875,156126.046875,135328.109375,140177.453125,0.0
1713490187.2610886,150362.703125,151219.296875,189264.203125,225824.0625,153538.96875,156135.53125,135244.6875,140185.5,0.0
1713490187.261094,150361.4375,151213.9375,189255.984375,225853.125,153554.96875,156131.953125,135263.015625,140183.703125,0.0
1713490187.2673616,150348.84375,151213.046875,189228.796875,225880.65625,153590.5625,156124.171875,135351.625,140180.40625,0.0
1713490187.267404,150346.609375,151209.640625,189227.90625,225848.390625,153572.234375,156125.0625,135330.875,140177.1875,0.0
1713490187.27436,150331.9375,151186.3125,189227.109375,225788.296875,153512.40625,156109.234375,135219.65625,140160.546875,0.0
1713490187.289908,150321.65625,151171.734375,189215.390625,225799.390625,153506.328125,156096.71875,135212.6875,140157.609375,0.0
1713490187.2899492,150333.734375,151196.765625,189210.65625,225853.5625,153568.828125,156115.046875,135335.4375,140176.203125,0.0
1713490187.293023,150334.984375,151200.078125,189208.515625,225834.96875,153562.03125,156115.40625,135342.953125,140175.390625,0.0
1713490187.293034,150330.515625,151183.90625,189212.078125,225772.828125,153507.671875,156109.15625,135239.765625,140161.0,0.0
1713490187.293039,150341.5,151190.328125,189224.515625,225792.5,153514.46875,156121.484375,135228.328125,140177.0,0.0
1713490187.29618,150346.953125,151217.6875,189220.9375,225851.6875,153585.015625,156139.8125,135345.90625,140195.15625,0.0
1713490187.296192,150326.9375,151207.6875,189200.1875,225827.109375,153575.09375,156125.6875,135354.125,140175.390625,0.0
1713490187.3255787,150314.421875,151184.875,189196.171875,225758.078125,153514.109375,156109.234375,135246.65625,140150.09375,0.0
1713490187.351844,150328.984375,151191.3125,189216.828125,225768.453125,153508.921875,156123.1875,135213.671875,140165.203125,0.0
1713490187.351879,150336.859375,151213.5,189213.6875,225829.34375,153572.046875,156137.9375,135319.703125,140182.8125,0.0
1713490187.3518953,150322.90625,151210.71875,189195.09375,225824.609375,153581.34375,156136.859375,135368.96875,140177.359375,0.0
1713490187.3780105,150313.15625,151195.875,189194.65625,225764.96875,153538.25,156134.625,135294.578125,140168.25,0.0
1713490187.3780212,150302.25,151171.203125,189190.890625,225737.078125,153497.296875,156118.09375,135213.578125,140158.9375,0.0
1713490187.3780255,150304.765625,151183.71875,189180.609375,225786.96875,153543.796875,156120.140625,135291.625,140169.046875,0.0
1713490187.4024572,150311.46875,151203.484375,189174.71875,225809.046875,153579.296875,156133.015625,135372.71875,140177.71875,0.0
1713490187.4024684,150301.71875,151189.796875,189173.1875,225748.703125,153535.484375,156121.671875,135299.234375,140158.9375,0.0
1713490187.4268355,150291.796875,151166.109375,189174.09375,225705.15625,153481.21875,156101.546875,135191.578125,140137.484375,0.0
1713490187.4355803,150303.515625,151185.6875,189180.96875,225763.453125,153531.09375,156117.203125,135262.390625,140159.125,0.0
1713490187.4380186,150288.578125,151186.671875,189156.03125,225783.5625,153559.703125,156110.484375,135337.578125,140153.40625,0.0
1713490187.4430964,150278.46875,151176.828125,189153.796875,225736.890625,153527.34375,156106.203125,135290.28125,140145.796875,0.0
1713490187.4455884,150257.640625,151145.8125,189146.734375,225676.640625,153463.0625,156087.421875,135177.90625,140125.0625,0.0
1713490187.4480588,150268.109375,151151.71875,189145.390625,225715.25,153487.296875,156091.71875,135212.59375,140138.5625,0.0
1713490187.4505787,150275.609375,151171.109375,189131.34375,225762.734375,153537.359375,156098.25,135320.6875,140151.609375,0.0
1713490187.4555364,150244.40625,151142.765625,189103.1875,225706.578125,153491.40625,156070.265625,135277.0625,140122.5625,0.0
1713490187.4580195,150229.75,151117.296875,189102.296875,225635.953125,153430.34375,156052.5625,135170.296875,140105.125,0.0
1713490187.4605546,150231.265625,151113.984375,189102.390625,225656.875,153436.59375,156047.90625,135174.328125,140112.625,0.0
1713490187.4630277,150229.921875,151133.46875,189088.078125,225705.515625,153492.65625,156058.015625,135285.734375,140123.1875,0.0
1713490187.465522,150219.109375,151132.9375,189077.625,225679.234375,153481.84375,156058.71875,135289.390625,140113.171875,0.0
1713490187.467929,150210.796875,151117.109375,189082.265625,225618.25,153429.890625,156056.671875,135192.390625,140100.5625,0.0
1713490187.4705198,150199.609375,151100.390625,189075.921875,225618.78125,153413.796875,156050.765625,135159.125,140096.1875,0.0
1713490187.473035,150206.046875,151124.890625,189069.21875,225678.6875,153481.921875,156071.15625,135276.609375,140114.234375,0.0
1713490187.4755251,150205.703125,151131.859375,189064.390625,225671.71875,153490.328125,156082.0625,135310.40625,140113.609375,0.0
1713490187.4780228,150184.78125,151101.109375,189054.28125,225596.703125,153428.015625,156061.3125,135206.0625,140086.96875,0.0
1713490187.480526,150184.15625,151093.328125,189065.8125,225595.546875,153412.453125,156065.34375,135160.296875,140093.859375,0.0
1713490187.4829993,150191.65625,151118.90625,189066.265625,225659.921875,153483.453125,156087.0625,135272.671875,140115.3125,0.0
1713490187.4855244,150184.421875,151121.40625,189050.609375,225658.21875,153495.609375,156083.484375,135320.859375,140109.140625,0.0
1713490187.4880407,150175.03125,151102.625,189048.46875,225599.5625,153445.71875,156067.75,135235.296875,140091.890625,0.0
1713490187.490481,150174.765625,151090.015625,189058.484375,225578.28125,153412.8125,156065.515625,135160.828125,140092.875,0.0
1713490187.493015,150170.203125,151095.46875,189043.546875,225621.375,153455.46875,156065.78125,135236.015625,140102.078125,0.0
1713490187.4955437,150161.703125,151099.765625,189026.5625,225637.46875,153482.109375,156063.546875,135306.203125,140103.609375,0.0
1713490187.498003,150144.09375,151080.640625,189020.125,225579.71875,153437.046875,156049.515625,135237.09375,140087.15625,0.0
1713490187.5005205,150137.21875,151062.578125,189025.671875,225542.96875,153389.03125,156037.625,135142.3125,140080.265625,0.0
1713490187.5030277,150145.796875,151080.1875,189027.90625,225590.625,153430.15625,156048.078125,135203.65625,140096.625,0.0
1713490187.505525,150152.765625,151105.484375,189024.328125,225632.109375,153483.265625,156065.25,135310.9375,140114.0625,0.0
1713490187.5091903,150123.984375,151074.203125,188999.5625,225565.140625,153431.140625,156034.5,135242.09375,140085.359375,0.0
1713490187.5092163,150104.578125,151037.453125,188987.40625,225501.75,153359.625,156005.96875,135125.328125,140062.390625,0.0
1713490187.5092285,150110.203125,151043.703125,188988.65625,225541.0,153382.5,156013.03125,135157.421875,140078.484375,0.0
1713490187.5117705,150106.359375,151057.296875,188971.140625,225572.75,153430.78125,156017.515625,135262.921875,140082.953125,0.0
1713490187.5153587,150092.6875,151047.203125,188962.375,225533.21875,153407.890625,156012.046875,135242.984375,140068.46875,0.0
1713490187.5153728,150078.65625,151023.234375,188963.265625,225471.53125,153350.046875,156005.078125,135136.0625,140051.296875,0.0
1713490187.5153797,150070.78125,151011.703125,188954.859375,225485.21875,153346.390625,155996.046875,135121.125,140045.390625,0.0
1713490187.523566,150085.171875,151043.171875,188953.4375,225546.640625,153412.640625,156015.09375,135240.40625,140062.203125,0.0
1713490187.5235848,150080.265625,151043.34375,188946.8125,225525.625,153403.0625,156014.921875,135243.34375,140054.515625,0.0
1713490187.5288837,150061.484375,151015.640625,188938.234375,225453.109375,153338.703125,155997.75,135130.78125,140027.34375,0.0
1713490187.528897,150085.984375,151034.765625,188964.15625,225484.140625,153354.34375,156024.484375,135126.3125,140051.921875,0.0
1713490187.5289009,150097.6875,151070.078125,188965.40625,225548.0625,153426.671875,156051.125,135243.609375,140073.65625,0.0
1713490187.5289044,150067.65625,151055.875,188938.046875,225515.34375,153413.53125,156034.9375,135251.390625,140049.6875,0.0
1713490187.528908,150053.53125,151037.984375,188941.359375,225451.859375,153365.078125,156024.65625,135159.21875,140036.90625,0.0
1713490187.5310729,150048.34375,151019.84375,188944.3125,225440.6875,153337.53125,156014.828125,135101.015625,140034.125,0.0
1713490187.5310788,150056.125,151038.25,188937.15625,225497.1875,153395.65625,156023.140625,135202.21875,140052.375,0.0
1713490187.532961,150054.515625,151049.875,188929.828125,225506.671875,153421.390625,156032.96875,135269.71875,140066.140625,0.0
1713490187.535468,150033.953125,151025.46875,188921.25,225438.0,153368.734375,156021.53125,135181.65625,140044.234375,0.0
1713490187.53792,150016.6875,150996.5,188916.0625,225405.640625,153320.8125,156002.125,135091.09375,140030.640625,0.0
1713490187.540468,150034.21875,151025.203125,188925.265625,225476.625,153387.15625,156023.953125,135189.25,140063.09375,0.0
1713490187.5429604,150039.578125,151044.421875,188919.28125,225502.921875,153425.328125,156035.125,135273.484375,140074.1875,0.0
1713490187.5454743,150018.125,151020.1875,188902.640625,225428.625,153373.03125,156019.125,135204.1875,140051.484375,0.0
1713490187.5479565,150009.625,151001.6875,188909.890625,225398.9375,153330.203125,156016.4375,135121.046875,140051.125,0.0
1713490187.5529792,150020.09375,151021.625,188915.34375,225452.21875,153374.1875,156027.078125,135176.296875,140067.484375,0.0
1713490187.5560803,150008.90625,151025.203125,188889.140625,225470.015625,153405.125,156021.984375,135258.546875,140064.703125,0.0
1713490187.5560915,149991.921875,151010.09375,188878.78125,225421.28125,153369.09375,156013.03125,135213.390625,140058.359375,0.0
1713490187.5580127,149988.4375,150990.59375,188883.34375,225367.203125,153314.015625,156005.890625,135116.390625,140041.109375,0.0
1713490187.561763,149978.328125,150978.078125,188868.5,225381.40625,153317.234375,155989.875,135126.046875,140024.828125,0.0
1713490187.5723553,149979.671875,150994.09375,188857.859375,225425.21875,153368.734375,155988.890625,135223.59375,140036.71875,0.0
1713490187.572366,149973.6875,150986.40625,188851.953125,225386.15625,153345.765625,155985.5,135200.34375,140022.15625,0.0
1713490187.5885437,149967.25,150965.5625,188854.28125,225329.375,153288.0,155974.6875,135095.828125,140004.984375,0.0
1713490187.5885549,149961.796875,150956.625,188846.671875,225346.625,153285.5,155965.46875,135082.234375,140005.078125,0.0
1713490187.5885594,149986.296875,150998.015625,188853.03125,225416.109375,153362.75,155991.578125,135206.875,140028.765625,0.0
1713490187.5885634,149982.890625,150994.0,188847.484375,225397.328125,153354.515625,155987.921875,135206.421875,140018.390625,0.0
1713490187.590538,149973.421875,150977.546875,188852.21875,225334.5625,153301.765625,155981.390625,135104.40625,140000.515625,0.0
1713490187.593016,149983.4375,150983.1875,188868.140625,225349.671875,153303.5625,155992.03125,135083.578125,140013.65625,0.0
1713490187.595536,150002.46875,151020.8125,188875.015625,225422.984375,153383.578125,156020.546875,135209.828125,140041.828125,0.0
1713490187.6017811,149990.40625,151017.15625,188859.640625,225408.234375,153386.265625,156016.609375,135236.828125,140035.296875,0.0
1713490187.6085303,149977.703125,150996.6875,188858.65625,225342.4375,153334.40625,156007.578125,135146.34375,140024.5625,0.0
1713490187.6085408,149977.0,150985.328125,188864.734375,225340.015625,153311.34375,156007.140625,135096.0,140033.78125,0.0
1713490187.6248007,149969.3125,150992.828125,188845.15625,225386.515625,153361.40625,156005.171875,135189.078125,140040.5625,0.0
1713490187.6248147,149973.328125,151003.296875,188838.0,225392.59375,153382.140625,156009.28125,135247.109375,140043.15625,0.0
1713490187.626704,149954.015625,150971.828125,188821.203125,225318.296875,153320.640625,155984.34375,135151.703125,140015.359375,0.0
1713490187.6297743,149949.453125,150950.640625,188824.328125,225295.3125,153279.953125,155973.515625,135074.015625,140010.796875,0.0
1713490187.6297925,149959.65625,150972.0,188825.046875,225352.71875,153334.859375,155988.359375,135157.515625,140026.796875,0.0
1713490187.6317236,149957.40625,150982.203125,188810.5625,225368.265625,153363.015625,155991.84375,135230.5625,140026.796875,0.0
1713490187.6386187,149961.265625,150983.1875,188816.375,225320.703125,153333.6875,155999.359375,135178.703125,140025.1875,0.0
1713490187.6386297,149941.328125,150946.515625,188802.328125,225263.578125,153265.109375,155973.4375,135064.359375,139994.703125,0.0
1713490187.6441855,149943.015625,150948.765625,188793.484375,225301.21875,153291.3125,155972.984375,135110.40625,139996.9375,0.0
1713490187.699927,149955.71875,150974.421875,188793.65625,225346.546875,153345.578125,155991.578125,135216.53125,140014.640625,0.0
1713490187.699947,149945.078125,150962.4375,188787.84375,225300.046875,153311.421875,155983.09375,135174.328125,140001.671875,0.0
1713490187.7249312,149941.671875,150946.796875,188795.71875,225254.984375,153261.8125,155978.171875,135079.46875,139996.9375,0.0
1713490187.7249415,149958.578125,150964.21875,188807.34375,225298.625,153296.671875,155995.78125,135120.59375,140020.8125,0.0
1713490187.7493503,149939.71875,150962.171875,188778.015625,225324.453125,153330.5625,155982.375,135205.53125,140008.828125,0.0
1713490187.7743385,149920.671875,150940.71875,188763.703125,225278.59375,153295.78125,155951.25,135160.375,139982.09375,0.0
1713490187.7993567,149928.625,150934.546875,188784.1875,225240.78125,153257.25,155955.109375,135072.671875,139982.09375,0.0
1713490187.825668,149933.0,150930.703125,188784.984375,225259.90625,153260.203125,155954.03125,135067.671875,139984.78125,0.0
1713490187.8505197,149941.140625,150951.171875,188776.40625,225309.4375,153318.765625,155963.5,135174.6875,139990.40625,0.0
1713490187.854359,149946.421875,150963.15625,188782.125,225296.5625,153323.859375,155974.421875,135187.203125,139992.921875,0.0
1713490187.856783,149942.84375,150952.0625,188792.5,225242.65625,153277.625,155972.453125,135095.5625,139985.578125,0.0
1713490187.8592172,149933.359375,150939.453125,188789.90625,225245.609375,153260.90625,155967.625,135061.671875,139985.3125,0.0
1713490187.86171,149942.03125,150967.265625,188786.0625,225311.859375,153332.078125,155986.03125,135180.5,140009.640625,0.0
1713490187.8642275,149941.234375,150973.171875,188779.625,225298.796875,153339.953125,155989.53125,135212.59375,140014.46875,0.0
1713490187.8692403,149925.5,150946.96875,188771.84375,225223.15625,153275.03125,155968.953125,135107.453125,139978.703125,0.0
1713490187.8717163,149933.09375,150941.96875,188786.953125,225232.015625,153261.265625,155972.09375,135061.40625,139992.828125,0.0
1713490187.8742125,149939.4375,150961.8125,188781.40625,225290.03125,153322.609375,155983.265625,135165.5625,140013.65625,0.0
1713490187.8767076,149925.9375,150959.578125,188760.578125,225282.34375,153332.609375,155975.75,135213.578125,140007.578125,0.0
1713490187.8792112,149920.21875,150946.25,188761.921875,225223.609375,153288.8125,155968.515625,135133.203125,139996.9375,0.0
1713490187.8817356,149930.234375,150942.328125,188778.734375,225212.875,153264.21875,155973.34375,135070.609375,140005.078125,0.0
1713490187.8841918,149930.859375,150952.78125,188767.546875,225258.484375,153307.21875,155977.359375,135143.75,140011.515625,0.0
1713490187.8867097,149925.859375,150959.9375,188750.03125,225272.78125,153333.25,155981.484375,135214.03125,140010.703125,0.0
1713490187.8892295,149900.734375,150928.640625,188727.671875,225201.4375,153275.3125,155954.921875,135129.4375,139977.09375,0.0
1713490187.8917012,149892.5,150902.359375,188726.34375,225158.25,153221.578125,155942.40625,135034.140625,139960.640625,0.0
1713490187.8942492,149900.015625,150910.40625,188725.890625,225205.375,153256.265625,155943.65625,135086.703125,139972.53125,0.0
1713490187.8967116,149914.3125,150938.203125,188728.125,225249.171875,153310.625,155956.265625,135182.109375,139987.28125,0.0
1713490187.8992314,149911.734375,150936.515625,188730.890625,225208.046875,153289.4375,155959.75,135151.96875,139983.703125,0.0
1713490187.901744,149901.0,150913.53125,188731.96875,225157.71875,153233.546875,155942.5,135045.140625,139970.296875,0.0
1713490187.9042273,149908.234375,150918.453125,188732.859375,225195.359375,153257.421875,155949.734375,135075.796875,139982.640625,0.0
1713490187.9067447,149905.375,150928.375,188713.46875,225233.078125,153305.171875,155955.109375,135177.640625,139984.15625,0.0
1713490187.9092317,149901.890625,150925.609375,188711.140625,225200.453125,153287.828125,155954.03125,135158.953125,139974.859375,0.0
1713490187.914213,149900.015625,150911.03125,188721.59375,225147.34375,153237.671875,155950.09375,135058.28125,139964.65625,0.0
1713490187.9167545,149897.421875,150904.5,188719.8125,225163.890625,153239.0,155946.15625,135049.609375,139964.65625,0.0
1713490187.9192653,149914.953125,150939.015625,188721.234375,225228.53125,153314.734375,155971.640625,135177.28125,139991.3125,0.0
1713490187.921754,149898.578125,150931.59375,188704.875,225203.765625,153302.390625,155967.4375,135179.78125,139984.15625,0.0
1713490187.9242496,149884.546875,150913.171875,188704.4375,225133.84375,153246.34375,155959.125,135079.375,139971.015625,0.0
1713490187.9398885,149886.875,150907.265625,188710.0625,225144.390625,153238.203125,155958.5,135051.65625,139977.1875,0.0
1713490187.9399016,149888.03125,150922.03125,188695.21875,225195.265625,153295.0625,155960.109375,135156.453125,139984.421875,0.0
1713490187.9399066,149882.21875,150924.078125,188686.109375,225187.21875,153299.71875,155957.15625,135185.140625,139986.84375,0.0
1713490187.939911,149870.78125,150905.03125,188684.765625,225121.78125,153242.9375,155945.09375,135090.734375,139969.21875,0.0
1713490187.9399147,149863.625,150885.453125,188681.453125,225104.15625,153203.515625,155928.8125,135017.859375,139950.8125,0.0
1713490187.9399192,149891.15625,150924.265625,188695.484375,225178.28125,153281.5625,155958.140625,135135.609375,139982.640625,0.0
1713490187.9399233,149879.8125,150921.578125,188675.109375,225169.78125,153288.359375,155951.4375,135177.1875,139970.46875,0.0
1713490187.9399269,149859.421875,150899.3125,188664.46875,225098.96875,153234.453125,155937.21875,135093.5,139950.53125,0.0
1713490187.939931,149863.625,150889.84375,188678.953125,225088.875,153206.109375,155937.578125,135022.78125,139954.828125,0.0
1713490187.9399347,149871.046875,150904.234375,188676.53125,225143.671875,153256.796875,155942.140625,135100.75,139969.046875,0.0
1713490187.9399445,149876.671875,150920.234375,188670.546875,225165.3125,153292.203125,155952.953125,135180.3125,139974.59375,0.0
1713490187.939948,149863.171875,150901.8125,188660.984375,225100.3125,153242.21875,155940.265625,135107.71875,139951.34375,0.0
1713490187.9399517,149856.46875,150877.328125,188661.78125,225062.3125,153187.78125,155923.09375,135004.0,139938.640625,0.0
1713490187.9399557,149877.3125,150901.90625,188673.765625,225125.34375,153238.46875,155944.828125,135074.375,139964.03125,0.0
1713490187.9399598,149876.5,150913.890625,188659.90625,225148.15625,153278.25,155946.4375,135163.859375,139966.8125,0.0
1713490187.9399636,149866.3125,150901.640625,188653.921875,225097.453125,153244.734375,155934.984375,135118.0,139950.53125,0.0
1713490187.9399672,149855.125,150876.609375,188655.4375,225051.328125,153191.625,155918.984375,135015.984375,139938.921875,0.0
1713490187.9399712,149860.5,150882.6875,188659.1875,225092.890625,153218.0,155920.859375,135048.359375,139953.9375,0.0
1713490187.9399753,149869.703125,150905.484375,188654.359375,225141.796875,153276.921875,155929.703125,135158.140625,139970.03125,0.0
1713490187.942926,149864.515625,150902.625,188649.265625,225104.96875,153255.734375,155923.625,135132.125,139958.765625,0.0
1713490187.9429436,149860.9375,150886.171875,188655.4375,225052.03125,153204.5,155917.375,135031.453125,139954.03125,0.0
1713490187.9429471,149852.8125,150873.75,188643.1875,225058.46875,153193.328125,155910.21875,135015.71875,139939.0,0.0
1713490187.946103,149869.171875,150909.421875,188645.515625,225123.46875,153266.71875,155939.28125,135139.375,139959.75,0.0
1713490187.9461083,149855.765625,150902.625,188632.1875,225093.796875,153253.765625,155934.453125,135139.8125,139947.3125,0.0
1713490187.9486148,149847.359375,150881.53125,188634.421875,225030.125,153197.875,155925.234375,135040.65625,139934.09375,0.0
1713490187.9486325,149854.6875,150877.5,188642.734375,225041.484375,153190.109375,155926.765625,135013.84375,139943.46875,0.0
1713490187.9577312,149849.953125,150884.296875,188621.28125,225088.609375,153242.5,155925.859375,135114.328125,139946.15625,0.0
1713490187.9577465,149840.109375,150876.875,188604.125,225071.609375,153238.109375,155918.09375,135132.9375,139935.15625,0.0
1713490187.957751,149833.9375,150861.859375,188606.984375,225009.390625,153187.6875,155910.484375,135042.453125,139923.625,0.0
1713490187.957755,149839.484375,150854.515625,188619.140625,225009.125,153165.421875,155908.15625,134988.09375,139928.90625,0.0
1713490187.957759,149859.0625,150884.203125,188626.46875,225083.328125,153236.765625,155918.890625,135098.0625,139958.9375,0.0
1713490187.9577632,149852.890625,150889.296875,188613.140625,225078.234375,153245.71875,155913.625,135136.6875,139943.390625,0.0
1713490187.9577668,149841.71875,150875.796875,188612.875,225014.671875,153202.703125,155909.859375,135060.328125,139924.515625,0.0
1713490187.9577703,149826.078125,150852.640625,188612.34375,224985.34375,153159.796875,155894.3125,134974.234375,139922.546875,0.0
1713490187.957774,149828.21875,150867.21875,188606.078125,225041.3125,153213.53125,155903.6875,135062.75,139936.328125,0.0
1713490187.9577777,149845.828125,150887.25,188603.046875,225070.1875,153249.296875,155917.8125,135142.9375,139945.4375,0.0
1713490187.9593456,149844.84375,150871.515625,188597.40625,225013.953125,153204.578125,155908.515625,135076.15625,139928.0,0.0
1713490187.9619384,149843.515625,150852.5625,188600.1875,224972.828125,153156.03125,155901.546875,134984.15625,139918.4375,0.0
1713490187.9643471,149856.203125,150864.984375,188601.609375,225022.984375,153197.171875,155914.6875,135046.65625,139935.515625,0.0
1713490187.9668622,149861.5625,150880.625,188594.640625,225060.0,153243.5625,155923.546875,135139.546875,139943.75,0.0
1713490187.9693315,149858.796875,150873.75,188591.953125,225011.53125,153214.875,155920.5,135099.21875,139928.71875,0.0
1713490187.9718342,149865.6875,150860.609375,188603.40625,224978.8125,153167.03125,155913.703125,135002.046875,139922.109375,0.0
1713490187.9743593,149864.25,150858.71875,188597.859375,225009.125,153182.5,155910.84375,135020.90625,139927.46875,0.0
1713490187.9768546,149865.5,150870.53125,188583.375,225041.75,153230.515625,155912.1875,135121.046875,139933.8125,0.0
1713490187.979396,149868.90625,150870.171875,188579.984375,225005.09375,153211.015625,155908.078125,135102.0,139923.09375,0.0
1713490187.981855,149878.28125,150862.921875,188596.25,224961.203125,153164.796875,155906.546875,135007.578125,139921.125,0.0
1713490187.9849098,149869.265625,150845.84375,188587.40625,224975.234375,153159.875,155894.84375,134997.484375,139920.234375,0.0
1713490187.9849205,149889.015625,150875.890625,188592.3125,225042.5625,153232.21875,155915.5,135118.453125,139943.5625,0.0
1713490187.9868972,149911.546875,150893.421875,188605.640625,225031.203125,153240.96875,155929.984375,135140.265625,139947.234375,0.0
1713490187.991176,149884.90625,150849.15625,188582.65625,224946.265625,153157.375,155889.296875,135008.828125,139909.046875,0.0
1713490187.9911864,149887.59375,150846.484375,188587.578125,224957.796875,153149.328125,155890.546875,134980.046875,139917.015625,0.0
1713490188.0061717,149906.265625,150880.625,188591.78125,225028.796875,153227.390625,155912.359375,135103.15625,139942.140625,0.0
1713490188.0061822,149909.484375,150886.625,188589.09375,225022.890625,153234.265625,155913.078125,135133.5625,139941.5,0.0
1713490188.0086057,149902.25,150866.765625,188586.859375,224953.0625,153176.59375,155900.65625,135033.59375,139920.9375,0.0
1713490188.0086164,149896.4375,150850.046875,188586.765625,224941.171875,153147.359375,155895.734375,134974.5,139918.0,0.0
1713490188.0105278,149900.734375,150871.421875,188579.265625,224998.921875,153206.28125,155910.84375,135075.078125,139928.90625,0.0
1713490188.024855,149918.15625,150899.671875,188588.65625,225022.984375,153241.6875,155928.28125,135139.015625,139944.015625,0.0
1713490188.0248704,149905.203125,150871.515625,188580.609375,224952.265625,153185.359375,155910.125,135051.75,139921.75,0.0
1713490188.0279515,149899.828125,150847.109375,188580.25,224929.546875,153139.59375,155893.046875,134965.921875,139905.65625,0.0
1713490188.0279577,149925.578125,150881.609375,188594.28125,225001.515625,153208.703125,155918.0,135062.5625,139937.578125,0.0
1713490188.0279615,149919.421875,150886.984375,188577.296875,225016.984375,153238.296875,155916.75,135135.796875,139942.484375,0.0
1713490188.0318184,149911.734375,150875.09375,188573.71875,224955.5625,153198.78125,155906.203125,135071.859375,139928.453125,0.0
1713490188.060531,149907.703125,150851.390625,188579.359375,224914.890625,153144.59375,155895.28125,134972.265625,139907.4375,0.0
1713490188.086089,149919.140625,150865.703125,188584.71875,224965.84375,153186.078125,155905.484375,135036.640625,139926.21875,0.0
1713490188.0860991,149924.421875,150880.0,188575.6875,225001.875,153230.0625,155909.859375,135128.375,139933.015625,0.0
1713490188.1366043,149912.265625,150859.984375,188564.328125,224949.671875,153190.1875,155892.515625,135072.3125,139913.34375,0.0
1713490188.1366155,149915.390625,150850.234375,188579.0,224914.53125,153147.71875,155889.75,134985.140625,139913.34375,0.0
1713490188.13662,149923.53125,150857.203125,188580.78125,224950.921875,153171.421875,155892.15625,135013.484375,139921.84375,0.0
1713490188.1366239,149933.984375,150884.46875,188578.453125,225001.875,153233.109375,155910.40625,135129.4375,139939.890625,0.0
1713490188.136628,149937.203125,150890.46875,188583.46875,224975.765625,153223.546875,155919.34375,135122.921875,139943.46875,0.0
1713490188.1379993,149914.953125,150854.703125,188568.53125,224900.765625,153149.59375,155893.046875,134998.015625,139911.734375,0.0
1713490188.1567943,149915.75,150848.625,188564.15625,224913.640625,153147.453125,155887.875,134984.78125,139909.328125,0.0
1713490188.1592696,149930.0625,150875.71875,188561.375,224969.6875,153213.53125,155907.984375,135102.71875,139928.453125,0.0
1713490188.1616938,149924.328125,150874.375,188555.84375,224949.125,153208.515625,155912.359375,135113.53125,139926.9375,0.0
1713490188.164264,149915.125,150855.15625,188559.859375,224889.140625,153154.421875,155903.875,135015.1875,139914.6875,0.0
1713490188.1673367,149927.015625,150858.8125,188576.578125,224909.609375,153156.578125,155912.28125,134995.953125,139930.234375,0.0
1713490188.167343,149942.9375,150891.890625,188582.484375,224979.078125,153231.859375,155935.875,135118.453125,139957.78125,0.0
1713490188.1692667,149921.828125,150880.0,188556.546875,224950.203125,153218.4375,155917.8125,135133.640625,139935.875,0.0
1713490188.1742744,149916.015625,150855.328125,188547.703125,224876.0,153151.390625,155890.734375,135017.421875,139899.9375,0.0
1713490188.179314,149931.484375,150854.515625,188564.25,224879.21875,153135.296875,155894.3125,134966.71875,139904.40625,0.0
1713490188.1818013,149933.09375,150876.15625,188560.671875,224938.578125,153200.109375,155908.609375,135074.1875,139920.234375,0.0
1713490188.1842837,149929.078125,150886.703125,188552.984375,224942.421875,153219.25,155914.78125,135126.9375,139917.28125,0.0
1713490188.1892977,149923.4375,150870.890625,188552.171875,224883.0625,153171.6875,155905.84375,135044.328125,139904.578125,0.0
1713490188.1917756,149906.90625,150838.15625,188543.5,224854.8125,153121.609375,155886.890625,134956.796875,139895.46875,0.0
1713490188.1943588,149911.734375,150847.90625,188533.484375,224905.59375,153167.21875,155894.65625,135036.015625,139909.046875,0.0
1713490188.196852,149918.703125,150864.984375,188526.0625,224923.734375,153200.5625,155902.625,135114.0625,139918.890625,0.0
1713490188.199308,149923.34375,150865.78125,188538.84375,224883.5,153176.953125,155907.71875,135065.875,139922.28125,0.0
1713490188.20187,149888.921875,150819.03125,188518.734375,224823.0625,153105.25,155874.640625,134949.109375,139893.765625,0.0
1713490188.2042477,149887.5,150822.875,188509.171875,224864.90625,153135.5625,155872.125,135003.296875,139901.8125,0.0
1713490188.2067409,149897.421875,150845.046875,188504.078125,224901.125,153181.15625,155880.890625,135097.171875,139910.578125,0.0
1713490188.209258,149893.484375,150844.59375,188509.96875,224859.09375,153158.984375,155883.84375,135062.203125,139903.953125,0.0
1713490188.2117927,149885.4375,150826.71875,188517.75,224816.984375,153109.09375,155875.265625,134963.6875,139893.859375,0.0
1713490188.214285,149894.734375,150833.328125,188518.90625,224859.8125,153136.546875,155884.375,134998.1875,139906.1875,0.0
1713490188.2167802,149891.875,150843.53125,188497.984375,224893.78125,153183.21875,155887.515625,135099.40625,139909.953125,0.0
1713490188.2222972,149883.75,150836.546875,188489.59375,224852.03125,153157.921875,155878.21875,135066.6875,139890.984375,0.0
1713490188.2223032,149881.953125,150822.515625,188501.125,224800.796875,153107.671875,155867.296875,134957.96875,139879.90625,0.0
1713490188.2242627,149865.5,150800.4375,188487.078125,224810.375,153098.546875,155848.703125,134945.625,139874.625,0.0
1713490188.2273529,149875.421875,150826.359375,188482.53125,224868.84375,153165.6875,155868.640625,135070.53125,139898.765625,0.0
1713490188.2273607,149887.046875,150844.234375,188493.4375,224863.125,153174.984375,155886.34375,135093.953125,139912.546875,0.0
1713490188.229286,149888.390625,150834.765625,188503.71875,224810.453125,153127.421875,155882.328125,135000.4375,139901.28125,0.0
1713490188.232335,149877.484375,150809.640625,188489.859375,224805.09375,153098.1875,155862.75,134953.40625,139886.078125,0.0
1713490188.2323425,149877.03125,150819.390625,188468.3125,224848.546875,153147.8125,155864.359375,135051.65625,139889.828125,0.0
1713490188.2342646,149875.875,150828.234375,188464.546875,224841.65625,153157.375,155867.75,135080.625,139892.0625,0.0
1713490188.2379575,149868.8125,150822.25,188475.109375,224789.1875,153116.96875,155871.0625,134995.328125,139883.578125,0.0
1713490188.2379622,149873.640625,150815.8125,188487.625,224787.125,153099.625,155873.5625,134948.03125,139890.1875,0.0
1713490188.237966,149884.8125,150831.546875,188482.703125,224846.40625,153156.3125,155879.203125,135041.640625,139898.0625,0.0
1713490188.2417915,149883.46875,150832.4375,188470.1875,224847.65625,153166.234375,155870.875,135079.015625,139886.4375,0.0
1713490188.241802,149875.875,150815.8125,188468.671875,224784.890625,153118.484375,155860.59375,135000.609375,139869.796875,0.0
1713490188.2418096,149874.265625,150802.125,188474.296875,224765.125,153081.828125,155858.09375,134928.453125,139868.46875,0.0
1713490188.2449243,149883.296875,150819.5625,188471.34375,224817.609375,153133.953125,155871.15625,135012.953125,139885.359375,0.0
1713490188.2449348,149877.21875,150822.25,188455.171875,224828.4375,153155.765625,155865.96875,135077.140625,139884.90625,0.0
1713490188.2468214,149865.234375,150807.859375,188449.265625,224768.53125,153112.40625,155857.109375,135011.609375,139872.84375,0.0
1713490188.2499068,149841.984375,150771.375,188433.171875,224717.296875,153047.40625,155830.015625,134905.84375,139851.109375,0.0
1713490188.2499208,149848.0625,150781.828125,188430.3125,224767.453125,153087.1875,155839.5,134972.171875,139870.421875,0.0
1713490188.2518778,149863.890625,150812.234375,188434.6875,224812.875,153145.9375,155861.765625,135080.1875,139892.328125,0.0
1713490188.2549057,149873.1875,150821.625,188448.109375,224777.015625,153129.65625,155870.34375,135047.8125,139887.421875,0.0
1713490188.254917,149869.96875,150804.1875,188455.25,224729.640625,153079.140625,155861.40625,134950.265625,139878.921875,0.0
1713490188.2618525,149863.890625,150795.515625,188441.3125,224755.65625,153089.78125,155856.484375,134970.203125,139875.703125,0.0
1713490188.2661765,149867.46875,150811.078125,188428.25,224799.90625,153139.765625,155859.53125,135066.953125,139877.578125,0.0
1713490188.2661867,149854.6875,150801.6875,188418.78125,224753.328125,153114.640625,155845.84375,135034.578125,139860.59375,0.0
1713490188.275596,149874.09375,150808.484375,188450.78125,224722.578125,153086.03125,155861.5,134954.296875,139873.828125,0.0
1713490188.2830596,149860.5,150789.875,188435.671875,224735.171875,153079.59375,155841.734375,134938.734375,139865.0625,0.0
1713490188.2831006,149838.328125,150783.625,188398.484375,224759.859375,153112.9375,155825.109375,135023.765625,139849.953125,0.0
1713490188.2831204,149834.84375,150785.234375,188393.5625,224735.171875,153103.5625,155829.03125,135029.9375,139846.921875,0.0
1713490188.2856486,149825.359375,150765.109375,188393.828125,224672.234375,153047.5,155818.9375,134929.53125,139836.28125,0.0
1713490188.289318,149829.5625,150754.65625,188395.359375,224682.421875,153035.703125,155816.609375,134903.78125,139843.421875,0.0
1713490188.3073573,149834.296875,150771.734375,188384.71875,224736.34375,153094.96875,155826.359375,135012.234375,139856.296875,0.0
1713490188.3073685,149838.0625,150784.421875,188387.390625,224738.21875,153111.609375,155839.59375,135051.296875,139863.0,0.0
1713490188.312342,149826.34375,150766.8125,188388.828125,224676.53125,153061.984375,155835.296875,134962.34375,139846.828125,0.0
1713490188.3123527,149822.953125,150749.921875,188391.59375,224668.390625,153033.640625,155825.109375,134903.25,139842.796875,0.0
1713490188.3148246,149848.609375,150781.65625,188399.640625,224734.828125,153101.765625,155844.953125,135009.28125,139865.515625,0.0
1713490188.31485,149844.40625,150787.5625,188387.65625,224736.34375,153116.78125,155844.78125,135055.234375,139859.703125,0.0
1713490188.3167157,149829.03125,150766.015625,188378.1875,224667.59375,153061.984375,155827.875,134965.734375,139834.671875,0.0
1713490188.3230102,149819.90625,150742.234375,188375.6875,224640.671875,153016.390625,155812.40625,134879.28125,139823.3125,0.0
1713490188.333532,149833.5,150768.421875,188382.03125,224709.78125,153078.078125,155831.546875,134972.796875,139848.25,0.0
1713490188.3335495,149837.15625,150787.828125,188376.9375,224728.296875,153112.9375,155840.21875,135050.765625,139855.5,0.0
1713490188.3360825,149825.0,150771.109375,188369.609375,224666.421875,153066.90625,155823.578125,134981.125,139836.90625,0.0
1713490188.3361015,149808.015625,150740.53125,188364.6875,224621.453125,153009.59375,155800.703125,134879.46875,139821.875,0.0
1713490188.3443315,149826.515625,150764.3125,188378.453125,224684.390625,153064.75,155823.5,134954.828125,139853.265625,0.0
1713490188.3523507,149838.5,150785.5,188374.796875,224724.09375,153114.28125,155837.53125,135055.328125,139866.765625,0.0
1713490188.352362,149813.375,150753.765625,188348.140625,224652.390625,153057.59375,155808.296875,134984.0625,139829.484375,0.0
1713490188.3724675,149803.453125,150733.109375,188349.21875,224603.21875,153003.78125,155800.078125,134885.625,139820.453125,0.0
1713490188.3724844,149820.0,150754.296875,188365.3125,224655.703125,153044.1875,155821.96875,134933.546875,139847.1875,0.0
1713490188.374869,149823.390625,150771.734375,188355.296875,224699.953125,153097.46875,155825.90625,135033.25,139848.796875,0.0
1713490188.374886,149820.0,150765.03125,188351.625,224663.5625,153077.1875,155819.828125,135010.359375,139838.515625,0.0
1713490188.3773713,149823.578125,150753.9375,188363.25,224616.09375,153029.4375,155816.96875,134915.40625,139833.953125,0.0
1713490188.3773823,149815.34375,150736.5,188349.9375,224623.953125,153018.53125,155799.796875,134896.453125,139822.59375,0.0
1713490188.3792784,149825.8125,150761.546875,188346.359375,224678.21875,153082.015625,155816.15625,135005.4375,139833.953125,0.0
1713490188.3893125,149824.46875,150769.046875,188348.953125,224663.921875,153084.328125,155830.109375,135021.0,139834.671875,0.0
1713490188.3967512,149816.6875,150752.15625,188353.515625,224608.3125,153032.125,155820.8125,134919.421875,139821.875,0.0
1713490188.3967612,149807.75,150729.796875,188341.625,224600.359375,153005.296875,155797.828125,134869.8125,139809.71875,0.0
1713490188.3967671,149810.421875,150745.53125,188328.5625,224655.0625,153064.9375,155805.34375,134979.421875,139821.875,0.0
1713490188.3998787,149818.921875,150762.171875,188334.5625,224658.015625,153083.703125,155820.984375,135021.4375,139835.203125,0.0
1713490188.399886,149806.140625,150739.546875,188331.609375,224588.640625,153028.09375,155807.578125,134926.84375,139820.359375,0.0
1713490188.4381597,149798.53125,150716.5625,188326.421875,224575.5,152995.640625,155793.28125,134867.578125,139813.75,0.0
1713490188.4643269,149811.40625,150740.4375,188323.640625,224636.03125,153056.078125,155805.703125,134972.265625,139831.53125,0.0
1713490188.4643652,149815.34375,150756.984375,188324.09375,224648.984375,153080.671875,155811.328125,135028.328125,139837.078125,0.0
1713490188.4643805,149792.09375,150734.0,188315.953125,224578.8125,153027.921875,155792.375,134939.359375,139812.84375,0.0
1713490188.489989,149790.484375,150721.75,188328.125,224562.265625,152997.96875,155791.671875,134873.828125,139818.296875,0.0
1713490188.4900076,149811.5,150748.9375,188334.734375,224628.15625,153059.296875,155810.265625,134962.875,139840.484375,0.0
1713490188.5156305,149808.640625,150754.390625,188315.609375,224642.46875,153084.328125,155810.078125,135035.5625,139843.96875,0.0
1713490188.5405552,149788.53125,150732.65625,188301.296875,224575.40625,153036.046875,155795.953125,134964.75,139823.40625,0.0
1713490188.5668983,149766.890625,150702.0,188294.046875,224529.09375,152981.0625,155777.265625,134867.125,139808.015625,0.0
1713490188.5756278,149781.734375,150720.6875,188300.046875,224584.171875,153026.671875,155792.5625,134934.171875,139830.640625,0.0
1713490188.5781057,149784.671875,150731.953125,188285.65625,224610.8125,153062.515625,155797.828125,135015.09375,139828.59375,0.0
1713490188.5806289,149781.375,150724.4375,188283.765625,224562.984375,153030.6875,155795.78125,134971.375,139815.265625,0.0
1713490188.583131,149771.265625,150699.9375,188282.96875,224512.640625,152972.484375,155781.203125,134867.578125,139801.5,0.0
1713490188.5856476,149776.453125,150707.8125,188286.984375,224556.28125,152999.9375,155789.703125,134901.8125,139816.609375,0.0
1713490188.5881076,149791.921875,150739.359375,188289.765625,224611.625,153065.46875,155808.203125,135013.578125,139835.375,0.0
1713490188.5906336,149778.421875,150723.546875,188273.40625,224558.0625,153033.734375,155789.25,134980.578125,139811.78125,0.0
1713490188.5931027,149774.125,150702.703125,188276.265625,224502.984375,152977.9375,155780.578125,134879.015625,139798.8125,0.0
1713490188.5955665,149777.34375,150700.125,188279.296875,224527.21875,152985.890625,155783.53125,134879.640625,139804.453125,0.0
1713490188.5980644,149783.609375,150722.640625,188272.15625,224577.90625,153045.359375,155792.46875,134985.765625,139812.765625,0.0
1713490188.6005573,149795.40625,150736.59375,188278.40625,224567.546875,153048.296875,155804.359375,134996.765625,139812.765625,0.0
1713490188.6030529,149779.40625,150708.34375,188271.609375,224499.234375,152984.5625,155786.65625,134885.90625,139787.1875,0.0
1713490188.6055653,149758.03125,150683.484375,188260.078125,224493.875,152960.421875,155767.96875,134840.296875,139776.8125,0.0
1713490188.6080651,149782.71875,150729.890625,188276.078125,224575.859375,153051.875,155806.5,134984.25,139816.96875,0.0
1713490188.6131392,149772.78125,150725.859375,188259.640625,224556.1875,153048.75,155800.515625,135009.734375,139808.734375,0.0
1713490188.6155233,149748.640625,150693.140625,188243.984375,224475.984375,152979.09375,155775.578125,134899.84375,139780.125,0.0
1713490188.6180933,149748.921875,150679.734375,188248.1875,224469.28125,152949.421875,155768.515625,134842.8125,139780.9375,0.0
1713490188.620617,149760.359375,150697.34375,188243.984375,224529.625,153005.296875,155771.28125,134940.171875,139797.03125,0.0
1713490188.6231487,149759.640625,150703.0625,188234.59375,224534.453125,153020.140625,155770.484375,134988.71875,139798.1875,0.0
1713490188.6256106,149761.25,150697.609375,188242.640625,224484.75,152985.0,155768.59375,134915.671875,139793.0,0.0
1713490188.6281056,149749.90625,150672.140625,188237.640625,224452.828125,152938.421875,155750.8125,134829.84375,139779.59375,0.0
1713490188.6306064,149755.890625,150689.125,188232.28125,224508.625,152990.640625,155760.1875,134914.875,139794.96875,0.0
1713490188.633112,149759.734375,150709.859375,188229.953125,224535.171875,153026.9375,155769.84375,134992.296875,139804.453125,0.0
1713490188.6355352,149749.359375,150700.65625,188230.75,224472.40625,152988.671875,155765.5625,134925.78125,139791.21875,0.0
1713490188.638062,149748.015625,150681.875,188238.890625,224443.171875,152944.234375,155760.1875,134837.171875,139786.125,0.0
1713490188.643031,149761.875,150693.59375,188239.96875,224498.703125,152985.0,155769.84375,134899.046875,139801.3125,0.0
1713490188.645541,149756.34375,150700.125,188220.46875,224522.5625,153020.59375,155769.671875,134984.25,139800.421875,0.0
1713490188.6480465,149741.140625,150683.75,188208.21875,224468.5625,152983.75,155758.9375,134936.328125,139779.6875,0.0
1713490188.6505616,149730.59375,150656.484375,188206.34375,224414.75,152922.6875,155744.375,134827.34375,139761.53125,0.0
1713490188.7088816,149741.234375,150669.453125,188214.125,224459.0,152952.90625,155754.203125,134861.21875,139776.375,0.0
1713490188.7088935,149742.03125,150689.125,188201.875,224498.609375,153005.828125,155764.125,134967.078125,139781.828125,0.0
1713490188.7088983,149739.796875,150685.28125,188197.140625,224458.546875,152982.3125,155758.859375,134944.734375,139767.34375,0.0
1713490188.708902,149744.890625,150674.1875,188209.390625,224409.640625,152932.96875,155755.28125,134847.546875,139757.0625,0.0
1713490188.7089057,149734.34375,150652.640625,188195.53125,224418.59375,152926.265625,155739.1875,134833.234375,139749.90625,0.0
1713490188.7089093,149742.921875,150676.15625,188189.53125,224474.375,152997.515625,155756.0,134948.9375,139768.234375,0.0
1713490188.708913,149751.78125,150692.78125,188200.09375,224466.78125,153014.59375,155777.453125,134971.015625,139781.640625,0.0
1713490188.708917,149734.703125,150669.0,188197.140625,224399.28125,152959.15625,155757.609375,134855.59375,139759.46875,0.0
1713490188.7089205,149729.34375,150655.5,188196.421875,224411.875,152951.03125,155748.390625,134830.46875,139763.3125,0.0
1713490188.708924,149751.953125,150691.796875,188203.84375,224482.609375,153028.90625,155773.703125,134952.328125,139787.640625,0.0
1713490188.7089283,149762.59375,150708.25,188207.234375,224479.828125,153050.71875,155786.21875,134988.71875,139793.890625,0.0
1713490188.7089324,149744.09375,150679.375,188197.5,224405.09375,153001.0,155766.28125,134887.78125,139771.1875,0.0
1713490188.7089357,149729.78125,150649.875,188186.59375,224391.9375,152968.1875,155740.53125,134816.78125,139757.328125,0.0
1713490188.7089393,149737.03125,150668.28125,188177.015625,224447.109375,153033.109375,155750.0,134920.328125,139773.59375,0.0
1713490188.708943,149743.28125,150684.109375,188175.328125,224458.109375,153065.921875,155759.390625,134976.828125,139782.546875,0.0
1713490188.7089462,149707.703125,150641.90625,188148.59375,224370.9375,153000.734375,155722.28125,134868.828125,139744.359375,0.0
1713490188.70895,149695.984375,150614.203125,188144.484375,224341.15625,152958.0,155700.65625,134780.671875,139732.921875,0.0
1713490188.711799,149711.359375,150638.609375,188148.765625,224405.359375,153020.59375,155715.3125,134869.0,139753.390625,0.0
1713490188.71181,149706.265625,150647.28125,188132.5,224416.890625,153045.359375,155714.59375,134935.34375,139749.90625,0.0
1713490188.7118149,149707.4375,150645.9375,188139.375,224368.078125,153012.09375,155716.296875,134877.234375,139742.484375,0.0
1713490188.71486,149702.609375,150629.390625,188147.25,224334.90625,152966.3125,155712.90625,134788.09375,139738.109375,0.0
1713490188.7148707,149711.015625,150642.625,188147.421875,224386.484375,153012.265625,155727.65625,134855.234375,139753.578125,0.0
1713490188.717321,149724.515625,150669.0,188147.703125,224429.140625,153069.765625,155751.25,134963.140625,139772.53125,0.0
1713490188.7173312,149722.09375,150660.234375,188147.703125,224387.109375,153043.921875,155749.90625,134925.59375,139767.515625,0.0
1713490188.7269971,149685.078125,150603.296875,188120.25,224310.859375,152959.96875,155704.578125,134791.671875,139725.859375,0.0
1713490188.727006,149684.984375,150601.953125,188114.796875,224343.390625,152979.375,155699.484375,134812.234375,139726.390625,0.0
1713490188.72701,149694.828125,150630.375,188109.515625,224389.0,153040.078125,155715.484375,134923.359375,139737.5625,0.0
1713490188.7270143,149694.203125,150635.828125,188111.125,224359.765625,153029.53125,155722.46875,134912.28125,139732.921875,0.0
1713490188.7270205,149691.875,150625.640625,188125.4375,224316.21875,152986.796875,155725.859375,134819.375,139728.890625,0.0
1713490188.7270253,149705.640625,150635.65625,188139.375,224342.5,153006.109375,155741.6875,134832.34375,139743.203125,0.0
1713490188.72703,149707.34375,150651.65625,188126.234375,224390.78125,153063.953125,155748.390625,134941.421875,139753.03125,0.0
1713490188.7270346,149691.0625,150639.5,188108.171875,224359.484375,153045.4375,155735.421875,134932.21875,139740.703125,0.0
1713490188.727039,149677.484375,150613.296875,188103.171875,224294.3125,152983.921875,155718.625,134822.875,139723.078125,0.0
1713490188.727044,149693.21875,150617.328125,188117.296875,224317.296875,152986.796875,155728.28125,134809.015625,139741.140625,0.0
1713490188.7270496,149711.1875,150647.1875,188118.453125,224381.03125,153059.484375,155747.953125,134930.25,139766.09375,0.0
1713490188.729302,149693.578125,150637.890625,188096.015625,224352.96875,153050.71875,155735.96875,134949.203125,139749.28125,0.0
1713490188.7317965,149690.265625,150628.953125,188103.703125,224291.546875,153003.328125,155733.28125,134858.453125,139739.171875,0.0
1713490188.7342713,149691.15625,150619.921875,188113.1875,224291.625,152980.265625,155728.28125,134805.703125,139742.3125,0.0
1713490188.7367415,149684.1875,150623.765625,188093.609375,224338.65625,153023.53125,155719.78125,134888.5,139740.78125,0.0
1713490188.7392807,149686.0625,150631.1875,188083.234375,224342.953125,153038.203125,155718.171875,134938.03125,139739.890625,0.0
1713490188.741799,149683.03125,150622.15625,188086.265625,224284.390625,152994.21875,155711.203125,134860.59375,139729.515625,0.0
1713490188.7442472,149675.515625,150599.0,188083.765625,224258.109375,152948.25,155692.96875,134772.4375,139714.765625,0.0
1713490188.7504935,149683.734375,150615.453125,188080.640625,224311.65625,152999.125,155702.96875,134857.46875,139732.203125,0.0
1713490188.7530403,149666.9375,150609.09375,188056.40625,224312.8125,153012.890625,155690.546875,134909.859375,139719.234375,0.0
1713490188.7555206,149670.953125,150605.703125,188067.859375,224268.5625,152983.125,155694.390625,134850.40625,139715.84375,0.0
1713490188.7580712,149674.0,150590.234375,188077.515625,224242.1875,152941.90625,155690.90625,134765.109375,139712.171875,0.0
1713490188.7605593,149683.46875,150600.609375,188079.203125,224293.15625,152983.296875,155699.84375,134827.15625,139727.28125,0.0
1713490188.7636292,149675.6875,150611.78125,188064.546875,224323.09375,153024.875,155707.265625,134918.796875,139731.671875,0.0
1713490188.763656,149676.046875,150618.671875,188073.046875,224283.9375,153009.234375,155722.640625,134892.6875,139736.140625,0.0
1713490188.7655632,149677.84375,150610.890625,188084.21875,224246.84375,152969.359375,155728.28125,134807.3125,139734.890625,0.0
1713490188.7685516,149681.0625,150614.828125,188079.75,224282.875,152992.6875,155730.515625,134841.46875,139737.21875,0.0
1713490188.7685647,149687.671875,150635.75,188071.609375,224323.1875,153045.171875,155738.46875,134943.828125,139740.875,0.0
1713490188.770475,149673.1875,150620.640625,188059.984375,224275.984375,153017.640625,155727.109375,134914.421875,139725.140625,0.0
1713490188.797408,149661.921875,150597.65625,188062.3125,224219.03125,152961.046875,155712.359375,134808.65625,139713.25,0.0
1713490188.7974203,149659.78125,150592.46875,188059.1875,224238.796875,152962.296875,155707.71875,134806.234375,139715.21875,0.0
1713490188.8219352,149679.171875,150626.53125,188065.171875,224300.65625,153033.8125,155733.640625,134929.703125,139737.84375,0.0
1713490188.8469539,149675.609375,150624.921875,188062.671875,224276.78125,153026.578125,155728.8125,134928.09375,139730.328125,0.0
1713490188.8718154,149676.59375,150612.59375,188072.859375,224226.28125,152980.703125,155726.671875,134836.015625,139726.9375,0.0
1713490188.8968384,149659.0625,150583.4375,188053.375,224220.46875,152950.21875,155702.4375,134791.03125,139714.765625,0.0
1713490188.9081268,149664.25,150603.203125,188043.71875,224273.65625,153008.875,155712.984375,134896.265625,139727.828125,0.0
1713490188.910632,149675.609375,150620.1875,188052.484375,224277.6875,153026.046875,155721.296875,134932.65625,139736.5,0.0
1713490188.913052,149695.625,150633.328125,188081.796875,224239.6875,153000.203125,155737.03125,134866.59375,139745.4375,0.0
1713490188.915609,149670.6875,150597.75,188060.25,224207.140625,152945.3125,155704.140625,134780.84375,139719.953125,0.0
1713490188.9181142,149655.125,150592.203125,188025.828125,224239.859375,152975.25,155686.609375,134850.3125,139707.625,0.0
1713490188.9206073,149645.828125,150590.5,188006.25,224237.984375,152980.265625,155676.953125,134888.40625,139697.78125,0.0
1713490188.9230473,149625.796875,150566.09375,187996.515625,224167.984375,152920.1875,155657.90625,134794.609375,139672.65625,0.0
1713490188.9255147,149621.59375,150548.390625,187998.921875,224144.015625,152877.890625,155646.015625,134714.328125,139663.546875,0.0
1713490188.928132,149638.765625,150568.421875,188000.625,224199.71875,152933.140625,155658.625,134801.40625,139681.515625,0.0
1713490188.930632,149656.5625,150594.078125,188007.328125,224235.75,152979.90625,155678.828125,134889.75,139701.1875,0.0
1713490188.9330432,149648.515625,150583.625,188008.484375,224183.359375,152945.75,155677.046875,134830.5625,139693.140625,0.0
1713490188.9355478,149633.84375,150558.859375,188007.953125,224142.046875,152894.171875,155664.078125,134736.328125,139682.140625,0.0
1713490188.9379728,149643.953125,150576.921875,188011.96875,224194.984375,152942.625,155681.34375,134807.3125,139700.90625,0.0
1713490188.9405403,149660.046875,150608.390625,188015.8125,224241.46875,153004.140625,155710.21875,134925.328125,139724.609375,0.0
1713490188.9430387,149645.46875,150592.203125,188006.34375,224187.375,152969.453125,155702.796875,134877.40625,139708.609375,0.0
1713490188.945544,149616.953125,150547.765625,187986.3125,224122.296875,152896.578125,155674.453125,134755.453125,139677.046875,0.0
1713490188.9480643,149623.5625,150554.65625,187987.65625,224166.375,152927.328125,155682.59375,134794.4375,139690.8125,0.0
1713490188.9592557,149629.640625,150577.546875,187979.609375,224212.234375,152985.625,155696.09375,134906.375,139704.125,0.0
1713490188.9617653,149625.53125,150570.65625,187975.765625,224172.0,152965.328125,155690.90625,134885.8125,139694.203125,0.0
1713490188.9642422,149644.9375,150573.703125,188007.234375,224141.15625,152933.234375,155699.21875,134806.859375,139705.46875,0.0
1713490188.9667387,149631.25,150552.6875,187992.3125,224150.28125,152922.859375,155677.40625,134789.78125,139693.84375,0.0
1713490188.9692848,149629.109375,150566.546875,187975.765625,224193.46875,152975.4375,155680.796875,134895.109375,139700.109375,0.0
1713490188.971818,149631.25,150573.515625,187976.921875,224175.9375,152973.375,155681.25,134899.578125,139702.171875,0.0
1713490188.9742644,149634.125,150567.265625,187991.6875,224124.265625,152928.9375,155683.9375,134809.453125,139699.296875,0.0
1713490188.9768023,149640.109375,150560.28125,187994.546875,224133.640625,152915.359375,155679.640625,134777.0,139699.578125,0.0
1713490188.9793096,149639.390625,150568.0625,187968.875,224177.28125,152956.484375,155673.375,134867.296875,139694.296875,0.0
1713490188.9817307,149618.03125,150553.765625,187939.640625,224145.625,152934.9375,155651.921875,134866.859375,139668.90625,0.0
1713490188.984302,149603.0,150537.578125,187940.890625,224076.609375,152879.40625,155640.921875,134766.1875,139650.21875,0.0
1713490188.9867687,149601.3125,150525.953125,187948.046875,224079.734375,152856.796875,155635.734375,134711.828125,139654.953125,0.0
1713490188.989237,149608.453125,150546.421875,187942.328125,224138.203125,152920.453125,155643.96875,134815.265625,139675.078125,0.0
1713490189.000486,149617.84375,150562.96875,187943.3125,224148.671875,152945.125,155653.796875,134867.21875,139683.03125,0.0
1713490189.0005229,149612.84375,150546.875,187945.640625,224090.109375,152899.0,155644.140625,134783.171875,139665.0625,0.0
1713490189.0005302,149600.140625,150521.03125,187944.46875,224061.765625,152855.8125,155630.46875,134701.359375,139652.28125,0.0
1713490189.000537,149617.484375,150548.75,187951.453125,224129.171875,152922.953125,155657.109375,134805.4375,139679.359375,0.0
1713490189.0005567,149628.671875,150567.53125,187946.796875,224152.78125,152960.0625,155671.953125,134889.125,139690.625,0.0
1713490189.0005608,149613.546875,150544.734375,187934.1875,224087.609375,152909.71875,155656.390625,134817.859375,139669.890625,0.0
1713490189.0005655,149623.390625,150541.859375,187955.46875,224072.140625,152880.9375,155668.375,134747.59375,139683.390625,0.0
1713490189.0005696,149619.453125,150546.96875,187945.453125,224114.34375,152916.34375,155674.625,134808.109375,139691.875,0.0
1713490189.0005739,149610.421875,150553.84375,187925.421875,224133.296875,152950.671875,155672.390625,134893.328125,139687.859375,0.0
1713490189.0005777,149606.765625,150550.71875,187925.96875,224088.671875,152923.9375,155671.6875,134854.703125,139678.03125,0.0
1713490189.0005815,149598.0,150529.265625,187926.234375,224039.140625,152868.765625,155663.546875,134758.3125,139663.359375,0.0
1713490189.0005856,149604.53125,150536.859375,187925.78125,224074.546875,152894.34375,155672.671875,134795.328125,139675.875,0.0
1713490189.0005896,149597.8125,150547.046875,187907.375,224106.5625,152942.265625,155675.796875,134894.390625,139678.5625,0.0
1713490189.0041711,149593.703125,150548.484375,187908.625,224076.703125,152933.6875,155683.578125,134884.46875,139677.3125,0.0
1713490189.0041833,149588.875,150533.734375,187917.203125,224028.78125,152887.109375,155682.140625,134793.0,139673.015625,0.0
1713490189.0041883,149588.4375,150529.53125,187914.609375,224052.5625,152891.84375,155678.203125,134796.5,139678.203125,0.0
1713490189.0073912,149599.703125,150557.609375,187910.765625,224106.5625,152952.640625,155692.328125,134909.765625,139694.921875,0.0
1713490189.007402,149603.546875,150562.96875,187911.578125,224087.875,152948.34375,155694.75,134912.90625,139693.40625,0.0
1713490189.0098972,149578.5,150519.875,187894.046875,224009.546875,152870.296875,155656.578125,134778.875,139655.140625,0.0
1713490189.0099084,149579.484375,150506.28125,187896.015625,224025.828125,152856.25,155642.53125,134742.671875,139656.75,0.0
1713490189.0118384,149581.453125,150519.515625,187881.265625,224067.3125,152904.171875,155637.625,134834.3125,139654.328125,0.0
1713490189.0143237,149588.78125,150526.9375,187879.296875,224060.0625,152906.5,155631.1875,134853.71875,139650.578125,0.0
1713490189.0167627,149568.21875,150496.09375,187867.21875,223984.421875,152836.046875,155602.578125,134739.359375,139621.609375,0.0
1713490189.0192995,149572.421875,150487.421875,187877.78125,223989.4375,152816.46875,155599.796875,134690.359375,139631.4375,0.0
1713490189.021798,149575.828125,150506.28125,187869.28125,224048.625,152875.203125,155607.671875,134789.078125,139644.59375,0.0
1713490189.0242832,149569.828125,150514.328125,187858.46875,224048.71875,152888.984375,155610.078125,134832.53125,139641.71875,0.0
1713490189.0267675,149575.375,150518.53125,187873.578125,224001.140625,152860.1875,155624.125,134769.140625,139642.4375,0.0
1713490189.0298815,149576.1875,150510.390625,187884.75,223986.484375,152830.59375,155627.6875,134699.75,139645.296875,0.0
1713490189.0299225,149576.625,150524.25,187876.96875,224038.078125,152884.328125,155642.265625,134791.125,139660.234375,0.0
1713490189.0317004,149599.703125,150556.34375,187889.484375,224074.640625,152938.59375,155676.6875,134890.015625,139687.328125,0.0
1713490189.0399003,149575.203125,150520.671875,187866.0625,223995.78125,152877.984375,155650.21875,134807.84375,139655.140625,0.0
1713490189.0399115,149557.3125,150483.390625,187854.171875,223944.28125,152812.71875,155625.1875,134698.140625,139630.375,0.0
1713490189.0417993,149568.40625,150502.796875,187859.8125,224005.890625,152865.28125,155644.140625,134773.515625,139652.09375,0.0
1713490189.0679996,149571.4375,150525.6875,187852.203125,224041.296875,152916.0625,155658.265625,134876.953125,139664.25,0.0
1713490189.0680263,149569.828125,150526.75,187854.171875,223998.375,152891.125,155661.765625,134837.4375,139657.1875,0.0
1713490189.0680392,149561.78125,150507.625,187857.5625,223954.125,152837.390625,155648.078125,134734.171875,139647.171875,0.0
1713490189.0830417,149562.328125,150506.1875,187852.921875,223986.9375,152857.0625,155646.921875,134763.5,139655.140625,0.0
1713490189.0873554,149567.78125,150524.171875,187844.609375,224030.734375,152911.78125,155658.09375,134871.859375,139666.671875,0.0
1713490189.0873833,149561.96875,150516.03125,187841.390625,223992.46875,152888.4375,155652.375,134851.5625,139657.109375,0.0
1713490189.0873964,149545.34375,150485.71875,187837.0,223925.15625,152820.84375,155632.796875,134739.546875,139634.03125,0.0
1713490189.0874093,149566.96875,150499.484375,187852.203125,223966.546875,152841.59375,155647.8125,134758.578125,139656.203125,0.0
1713490189.090506,149576.453125,150522.203125,187843.625,224022.875,152900.609375,155660.859375,134872.125,139669.703125,0.0
1713490189.0905173,149562.328125,150514.515625,187828.953125,223985.953125,152884.953125,155649.59375,134868.109375,139652.640625,0.0
1713490189.0905218,149541.765625,150487.6875,187822.875,223914.25,152819.6875,155628.140625,134751.4375,139626.96875,0.0
1713490189.093703,149547.296875,150485.71875,187832.359375,223932.03125,152816.109375,155632.609375,134730.421875,139637.078125,0.0
1713490189.0937138,149545.96875,150495.734375,187814.65625,223980.21875,152870.203125,155634.21875,134829.9375,139641.28125,0.0
1713490189.0956504,149546.671875,150503.78125,187813.9375,223975.9375,152881.46875,155642.453125,134862.75,139646.46875,0.0
1713490189.1068609,149532.28125,150479.46875,187810.8125,223907.625,152824.0625,155624.125,134762.703125,139627.421875,0.0
1713490189.1111653,149540.0625,150470.25,187823.78125,223910.484375,152804.21875,155618.578125,134711.109375,139632.25,0.0
1713490189.1111934,149548.015625,150486.875,187818.3125,223969.765625,152863.140625,155627.875,134808.828125,139646.203125,0.0
1713490189.1212108,149540.515625,150486.703125,187798.828125,223966.8125,152871.90625,155623.671875,134849.59375,139638.953125,0.0
1713490189.1212525,149532.28125,150475.265625,187795.34375,223904.40625,152824.609375,155620.09375,134769.765625,139622.953125,0.0
1713490189.123701,149527.984375,150463.015625,187799.71875,223883.046875,152787.953125,155620.09375,134696.890625,139619.640625,0.0
1713490189.123712,149535.5,150485.453125,187798.109375,223941.609375,152847.40625,155637.265625,134791.9375,139638.234375,0.0
1713490189.13177,149529.6875,150497.25,187785.78125,223953.84375,152876.015625,155642.171875,134859.25,139635.734375,0.0
1713490189.1599452,149521.109375,150485.71875,187783.984375,223893.046875,152836.59375,155634.40625,134791.21875,139617.9375,0.0
1713490189.1599724,149525.21875,150471.59375,187795.15625,223861.5,152790.546875,155626.078125,134700.921875,139612.3125,0.0
